%OpenBCI Raw EXG Data
%Number of channels = 16
%Sample Rate = 125 Hz
%Board = OpenBCI_GUI$BoardCytonSerialDaisy
Sample Index, EXG Channel 0, EXG Channel 1, EXG Channel 2, EXG Channel 3, EXG Channel 4, EXG Channel 5, EXG Channel 6, EXG Channel 7, EXG Channel 8, EXG Channel 9, EXG Channel 10, EXG Channel 11, EXG Channel 12, EXG Channel 13, EXG Channel 14, EXG Channel 15, Accel Channel 0, Accel Channel 1, Accel Channel 2, Other, Other, Other, Other, Other, Other, Other, Analog Channel 0, Analog Channel 1, Analog Channel 2, Timestamp, Other, Timestamp (Formatted)
0.0, 14627.22744074195, 54876.170143624564, -52424.83197746659, -48895.13390006231, -49923.962345595646, -32235.060004599098, -43124.91931020252, -57643.51727289168, 0.0, 0.0, 0.0, 0.0, 0.0, 0.0, 0.0, 0.0, 0.0, 0.0, 0.0, 192.0, 0.0, 0.0, 0.0, 0.0, 0.0, 0.0, 0.0, 0.0, 0.0, 1.7274711321866984E9, 0.0, 2024-09-27 16:05:32.186
80.0, 14617.99617028191, 54859.98748063892, -52447.56370157763, -48908.32142929095, -49945.55413073947, -32249.789804195145, -43142.91246448904, -57638.152854222404, -44064.29607442571, -42744.9396544623, -94496.22416451266, -25673.727771488164, -50607.00930440537, -45452.31705335582, -60528.59104020489, -90283.16620387629, 0.0, 0.0, 0.0, 192.0, 0.0, 0.0, 0.0, 0.0, 0.0, 0.0, 0.0, 0.0, 0.0, 1.7274711321867287E9, 0.0, 2024-09-27 16:05:32.186
82.0, 14626.713350619479, 54857.90876840458, -52445.06030619864, -48887.37784473632, -49910.59600241137, -32223.99589109372, -43120.87364445611, -57628.653362828896, -44055.422431876956, -42737.898854958876, -94550.15892388331, -25670.75498947561, -50597.06277812276, -45438.54837877135, -60631.78904435504, -90277.73472997364, -0.048, 1.012, 0.038, 192.0, 127.0, 64.0, 15.5, 80.0, 0.5, 24.0, 0.0, 0.0, 0.0, 1.7274711321867416E9, 0.0, 2024-09-27 16:05:32.186
84.0, 14621.393635439115, 54863.29553881831, -52438.08656192858, -48900.49831873159, -49940.167360325744, -32204.102838528495, -43142.19720866647, -57635.157720465395, -44067.26885643826, -42743.017404439146, -94495.97829532366, -25676.99112617864, -50610.83145270723, -45435.70970722553, -60579.48596232963, -90264.63660772284, -0.048, 1.012, 0.038, 192.0, 0.0, 0.0, 0.0, 0.0, 0.0, 0.0, 0.0, 0.0, 0.0, 1.7274711321867552E9, 0.0, 2024-09-27 16:05:32.186
86.0, 14629.70848437649, 54864.32371906325, -52452.503437102256, -48910.22132756965, -49920.1849007827, -32215.12224854496, -43131.80364749475, -57638.66694434488, -44064.832516292634, -42736.155418891365, -94551.9694151842, -25673.481902299154, -50603.187156103515, -45429.45121877804, -60659.1699313128, -90272.45971828219, -0.048, 1.012, 0.038, 192.0, 0.0, 0.0, 0.0, 0.0, 0.0, 0.0, 0.0, 0.0, 0.0, 1.7274711321867676E9, 0.0, 2024-09-27 16:05:32.186
88.0, 14634.581164667747, 54875.901922691104, -52435.82903573859, -48914.78108343853, -49934.69118293419, -32232.511905731193, -43146.06406045724, -57645.46187465929, -44071.49333614032, -42737.407116580864, -94496.04535055702, -25689.50810307361, -50628.33286861573, -45459.71548077053, -60600.87658177335, -90280.55104977502, -0.048, 1.012, 0.038, 192.0, 0.0, 0.0, 0.0, 0.0, 0.0, 0.0, 0.0, 0.0, 0.0, 1.72747113218678E9, 0.0, 2024-09-27 16:05:32.186
90.0, 14621.259524972384, 54873.800858712304, -52463.612254096544, -48904.23106005562, -49937.77572366902, -32227.7062806733, -43148.410993625046, -57655.564863153086, -44064.47488838135, -42727.28177634261, -94552.75172624014, -25691.497408330135, -50605.8917171826, -45447.84670446476, -60677.185437343775, -90292.64334352534, -0.048, 1.0150000000000001, 0.038, 192.0, 127.0, 64.0, 15.5, 104.0, 0.5, 24.0, 0.0, 0.0, 0.0, 1.7274711321867924E9, 0.0, 2024-09-27 16:05:32.186
92.0, 14625.618115141167, 54887.368367596675, -52417.254736096234, -48900.67713268723, -49956.48413377812, -32219.637300924936, -43158.178705952014, -57665.37727896897, -44075.896629798015, -42745.252578884676, -94494.99481856762, -25705.064917214506, -50620.75562724539, -45467.80681226335, -60610.845459800425, -90284.5073085436, -0.048, 1.0150000000000001, 0.038, 192.0, 0.0, 0.0, 0.0, 0.0, 0.0, 0.0, 0.0, 0.0, 0.0, 1.7274711321868052E9, 0.0, 2024-09-27 16:05:32.186
94.0, 14633.173004767063, 54847.55991072177, -52501.7443301373, -48909.30490604698, -49939.474456247626, -32251.220315840284, -43134.1282289181, -57661.82335160057, -44076.00838852029, -42741.676299771825, -94572.48831659417, -25714.720870819197, -50636.535958830835, -45459.62607379271, -60681.588731001466, -90310.41298036731, -0.048, 1.0150000000000001, 0.038, 192.0, 0.0, 0.0, 0.0, 0.0, 0.0, 0.0, 0.0, 0.0, 0.0, 1.7274711321868217E9, 0.0, 2024-09-27 16:05:32.186
96.0, 14635.497586190413, 54888.284789119345, -52429.212919379825, -48910.73541769212, -49931.5842904549, -32249.27571407267, -43123.73466774639, -57642.22087171327, -44063.938446514425, -42729.293433343584, -94493.63136215585, -25703.47794335818, -50618.36399058867, -45457.033271435896, -60691.06587065052, -90283.43442480975, -0.048, 1.0150000000000001, 0.038, 192.0, 0.0, 0.0, 0.0, 0.0, 0.0, 0.0, 0.0, 0.0, 0.0, 1.7274711321868336E9, 0.0, 2024-09-27 16:05:32.186
98.0, 14630.714312876979, 54857.75230619339, -52496.536373679206, -48932.43896155822, -49933.30537477796, -32252.494365274237, -43116.045667653765, -57634.241298942725, -44082.08806301213, -42726.3877065644, -94557.15501989782, -25707.14362944885, -50615.905298698584, -45450.595969032765, -60738.02688575112, -90293.87268947039, -0.048, 1.0150000000000001, 0.038, 192.0, 0.0, 0.0, 0.0, 0.0, 0.0, 0.0, 0.0, 0.0, 0.0, 1.7274711321868453E9, 0.0, 2024-09-27 16:05:32.186
100.0, 14648.930984608054, 54891.414033343084, -52423.04383791016, -48930.337897579426, -49923.42590372871, -32247.174650093875, -43102.14288260256, -57631.26851693017, -44086.33489445864, -42730.54513103308, -94503.28731576054, -25691.877387985875, -50610.317362584756, -45453.83697197878, -60730.06966472503, -90289.20117487921, -0.049, 1.0175, 0.038, 192.0, 127.0, 56.0, 15.5, 112.0, 0.5, 24.0, 0.0, 0.0, 0.0, 1.7274711321868577E9, 0.0, 2024-09-27 16:05:32.186
102.0, 14626.08750177473, 54846.30821303227, -52517.32349602265, -48944.01716518607, -49956.93116866722, -32242.03374886915, -43133.8823597291, -57645.26070895919, -44082.37863569005, -42727.192369364784, -94556.35035709744, -25689.686917029252, -50615.39120857611, -45432.066372879315, -60783.088002573015, -90286.5636690335, -0.049, 1.0175, 0.038, 192.0, 0.0, 0.0, 0.0, 0.0, 0.0, 0.0, 0.0, 0.0, 0.0, 1.7274711321868742E9, 0.0, 2024-09-27 16:05:32.186
104.0, 14628.009751797887, 54882.38392858314, -52429.03410542418, -48947.45933383219, -49929.14795030927, -32259.266943844195, -43113.184644363486, -57635.24712744321, -44090.80524334971, -42743.0397561836, -94511.557461209, -25685.12716116037, -50601.019036891346, -45447.84670446476, -60806.78085169564, -90282.67446549828, -0.049, 1.0175, 0.038, 192.0, 0.0, 0.0, 0.0, 0.0, 0.0, 0.0, 0.0, 0.0, 0.0, 1.7274711321868863E9, 0.0, 2024-09-27 16:05:32.186
106.0, 14621.147766250107, 54828.56092793476, -52520.944478624406, -48950.20859840019, -49953.801924443476, -32253.723711219278, -43117.8785106991, -57627.535775606135, -44101.71289464389, -42756.3390441345, -94562.65354903383, -25689.396344351335, -50624.510720313876, -45463.51527732793, -60838.02859044416, -90304.86974774238, -0.049, 1.0175, 0.038, 192.0, 0.0, 0.0, 0.0, 0.0, 0.0, 0.0, 0.0, 0.0, 0.0, 1.7274711321869E9, 0.0, 2024-09-27 16:05:32.186
108.0, 14621.594801139212, 54870.47044878846, -52430.129340902495, -48955.304796136, -49939.29564229198, -32252.71788271879, -43125.411048580536, -57630.3520954075, -44100.10356904311, -42752.159267921365, -94515.40196125531, -25668.56451851899, -50592.7935949318, -45459.08963192578, -60895.450221949846, -90276.93006717326, -0.049, 1.0175, 0.038, 192.0, 0.0, 0.0, 0.0, 0.0, 0.0, 0.0, 0.0, 0.0, 0.0, 1.7274711321869123E9, 0.0, 2024-09-27 16:05:32.186
110.0, 14620.968952294465, 54834.75236114888, -52510.08153081912, -48966.21244743019, -49966.34125308291, -32234.18828656534, -43135.15640916305, -57630.73207506324, -44098.06956029768, -42747.487753330206, -94532.88102541937, -25651.979524133152, -50586.691568695496, -45446.259730608435, -60884.743736355755, -90284.39554982133, -0.0475, 1.01275, 0.041999999999999996, 192.0, 127.0, 72.0, 15.5, 64.0, 0.5, 56.0, 0.0, 0.0, 0.0, 1.7274711321869256E9, 0.0, 2024-09-27 16:05:32.186
112.0, 14624.36641745167, 54875.94662618001, -52429.30232635765, -48967.84412477543, -49946.090572606394, -32255.981237409265, -43119.35372583315, -57623.98184823774, -44104.886842356544, -42765.793832039104, -94518.57590896796, -25639.820175149463, -50611.05497015178, -45460.76601275993, -60952.7377429888, -90289.64820976833, -0.0475, 1.01275, 0.041999999999999996, 192.0, 0.0, 0.0, 0.0, 0.0, 0.0, 0.0, 0.0, 0.0, 0.0, 1.7274711321869378E9, 0.0, 2024-09-27 16:05:32.186
114.0, 14603.780460808333, 54834.05945707077, -52507.91341160696, -48967.21827593068, -49972.75620374158, -32247.398167538428, -43135.35757486315, -57634.107188475995, -44113.358153505105, -42762.48577385971, -94528.25421431712, -25628.84546862191, -50625.293031369816, -45457.54736155836, -60907.00607383324, -90284.75317773261, -0.0475, 1.01275, 0.041999999999999996, 192.0, 0.0, 0.0, 0.0, 0.0, 0.0, 0.0, 0.0, 0.0, 0.0, 1.72747113218695E9, 0.0, 2024-09-27 16:05:32.186
116.0, 14631.809548355288, 54886.608408285196, -52421.81449196512, -48953.941339724224, -49934.55707246746, -32248.493403016735, -43110.86006294013, -57625.12178720496, -44106.20559527941, -42755.17675342283, -94522.42040901427, -25612.618102147353, -50581.10363258167, -45457.32384411381, -60989.752231806786, -90278.74055847414, -0.0475, 1.01275, 0.041999999999999996, 192.0, 0.0, 0.0, 0.0, 0.0, 0.0, 0.0, 0.0, 0.0, 0.0, 1.727471132186962E9, 0.0, 2024-09-27 16:05:32.186
118.0, 14624.858155829688, 54856.2994428038, -52491.708396876864, -48968.20175268671, -49962.384994314314, -32225.38169924995, -43142.01839471083, -57638.5551856226, -44112.08410407115, -42738.70351775927, -94502.16972853777, -25602.202189231182, -50574.42046098953, -45431.32876531229, -60927.524975243214, -90276.9077154288, -0.0475, 1.01275, 0.041999999999999996, 192.0, 0.0, 0.0, 0.0, 0.0, 0.0, 0.0, 0.0, 0.0, 0.0, 1.7274711321869738E9, 0.0, 2024-09-27 16:05:32.186
120.0, 14632.055417544296, 54897.02432120137, -52420.74160823126, -48961.004490972104, -49919.00025832657, -32212.574149677057, -43109.38484780608, -57619.422092368855, -44108.50782495831, -42739.4858288152, -94519.38057176836, -25599.45292466318, -50583.42821400502, -45436.603777003744, -61017.289580975725, -90272.52677351556, -0.04875, 1.008375, 0.045, 192.0, 127.0, 56.0, 15.5, 48.0, 0.5, 64.0, 0.0, 0.0, 0.0, 1.7274711321869855E9, 0.0, 2024-09-27 16:05:32.186
122.0, 14627.294495975317, 54864.90486441909, -52476.129230991515, -48970.28046492106, -49964.08372689292, -32206.650937396404, -43139.00090920936, -57630.195633196316, -44116.75561866231, -42737.831799725514, -94494.16780402277, -25598.62591011833, -50616.48644405442, -45441.20823636153, -60936.48802476979, -90267.07294786847, -0.04875, 1.008375, 0.045, 192.0, 0.0, 0.0, 0.0, 0.0, 0.0, 0.0, 0.0, 0.0, 0.0, 1.727471132186998E9, 0.0, 2024-09-27 16:05:32.186
124.0, 14629.484966931936, 54882.22746637195, -52436.968974705815, -48978.640017347345, -49930.39964799877, -32235.864667399488, -43117.74440023237, -57627.08874071702, -44103.63514466705, -42738.256482870165, -94528.67889746177, -25598.15652348477, -50583.29410353829, -45426.43373327658, -61040.5577469537, -90282.65211375382, -0.04875, 1.008375, 0.045, 192.0, 0.0, 0.0, 0.0, 0.0, 0.0, 0.0, 0.0, 0.0, 0.0, 1.7274711321870148E9, 0.0, 2024-09-27 16:05:32.187
126.0, 14636.056379801796, 54883.99325418392, -52448.41306786693, -48972.1580114553, -49952.14789535379, -32217.156257290397, -43117.31971708772, -57610.481394586735, -44101.690542899436, -42746.41486959635, -94483.05898702849, -25600.190532230205, -50580.83541164821, -45459.693129026076, -60960.47144657034, -90283.36736957639, -0.04875, 1.008375, 0.045, 192.0, 0.0, 0.0, 0.0, 0.0, 0.0, 0.0, 0.0, 0.0, 0.0, 1.727471132187029E9, 0.0, 2024-09-27 16:05:32.187
128.0, 14630.334333221237, 54889.69294902003, -52437.728934017294, -48974.6614068343, -49928.41034274225, -32234.456507498802, -43116.71621998742, -57612.69421728781, -44089.68765612694, -42729.91928218833, -94525.32613579347, -25587.71825882414, -50584.56815297224, -45431.10524786774, -61036.51208120729, -90275.8571834394, -0.04875, 1.008375, 0.045, 192.0, 0.0, 0.0, 0.0, 0.0, 0.0, 0.0, 0.0, 0.0, 0.0, 1.7274711321870484E9, 0.0, 2024-09-27 16:05:32.187
130.0, 14624.634638385134, 54872.21388485598, -52454.805666781154, -48974.370834156376, -49955.09832562188, -32226.61104519499, -43139.64910979856, -57627.35696165049, -44111.279441270766, -42751.868695243444, -94494.0560453005, -25602.425706675735, -50607.5457462723, -45462.822373249815, -60967.06521118465, -90287.18951787824, -0.050375, 1.0081875, 0.0435, 192.0, 127.0, 48.0, 15.5, 64.0, 0.5, 40.0, 0.0, 0.0, 0.0, 1.7274711321870608E9, 0.0, 2024-09-27 16:05:32.187
132.0, 14628.03210354234, 54877.153620380595, -52454.29157665868, -48970.30281666551, -49933.32772652242, -32227.795687651123, -43108.87075768361, -57620.49497610271, -44086.3572462031, -42730.88040719991, -94537.95487141072, -25590.936910025706, -50584.27758029432, -45440.023593905404, -61056.04750586123, -90286.18368937775, -0.050375, 1.0081875, 0.0435, 192.0, 0.0, 0.0, 0.0, 0.0, 0.0, 0.0, 0.0, 0.0, 0.0, 1.727471132187073E9, 0.0, 2024-09-27 16:05:32.187
134.0, 14637.866871102677, 54875.18666686853, -52455.990309237284, -48977.88005803586, -49958.58519775691, -32231.57313246407, -43120.24779561136, -57615.75640627819, -44093.1074730286, -42746.012538196155, -94484.51185041809, -25602.15748574227, -50587.786804173804, -45459.536666814885, -61003.14092673552, -90290.11759640189, -0.050375, 1.0081875, 0.0435, 192.0, 0.0, 0.0, 0.0, 0.0, 0.0, 0.0, 0.0, 0.0, 0.0, 1.7274711321870852E9, 0.0, 2024-09-27 16:05:32.187
136.0, 14641.286688004338, 54881.28869310483, -52475.95041703587, -48980.383453414855, -49952.79609594299, -32250.192135595342, -43117.654993254546, -57617.611601067976, -44083.228001979354, -42733.02617466762, -94539.13951386684, -25594.244968205094, -50597.55451650078, -45437.85547469324, -61104.84136400716, -90298.6112592949, -0.050375, 1.0081875, 0.0435, 192.0, 0.0, 0.0, 0.0, 0.0, 0.0, 0.0, 0.0, 0.0, 0.0, 1.727471132187097E9, 0.0, 2024-09-27 16:05:32.187
138.0, 14620.633676127634, 54884.99908268441, -52445.55204457665, -48990.35233144192, -49975.1478403983, -32240.111498845996, -43140.230255154405, -57638.19755771131, -44095.96849631888, -42754.37209062244, -94473.93947529072, -25603.878570065328, -50609.02096140635, -45468.00797796345, -61019.63651414353, -90294.6102970374, -0.050375, 1.0081875, 0.0435, 192.0, 0.0, 0.0, 0.0, 0.0, 0.0, 0.0, 0.0, 0.0, 0.0, 1.7274711321871111E9, 0.0, 2024-09-27 16:05:32.187
140.0, 14610.08365274473, 54853.326660791245, -52495.93287657892, -48992.565154143, -49952.77374419854, -32250.303894317618, -43133.30121437326, -57641.32680193506, -44102.159929533, -42755.377919122926, -94551.34356633945, -25607.343090455903, -50601.62253399164, -45467.00214946296, -61089.016328932805, -90310.10005594493, -0.056, 1.006, 0.048, 192.0, 127.0, 32.0, 15.5, 56.0, 0.5, 64.0, 0.0, 0.0, 0.0, 1.7274711321871233E9, 0.0, 2024-09-27 16:05:32.187
142.0, 14641.71137114899, 54902.03111195935, -52419.53461403068, -48983.75856682761, -49946.42584877323, -32232.37779526446, -43121.92417644551, -57621.098473203005, -44105.28917375674, -42754.59560806699, -94478.47687941515, -25602.11278225336, -50586.266885550845, -45476.747510045476, -61030.164185781985, -90292.95626794771, -0.056, 1.006, 0.048, 192.0, 0.0, 0.0, 0.0, 0.0, 0.0, 0.0, 0.0, 0.0, 0.0, 1.727471132187137E9, 0.0, 2024-09-27 16:05:32.187
144.0, 14644.930022350554, 54871.006890655386, -52489.00383579777, -48983.378587171865, -49947.05169761797, -32238.412766267393, -43117.18560662098, -57619.35503713549, -44103.27751675576, -42733.137933389895, -94537.50783652162, -25594.088505993906, -50615.68178125403, -45435.59794850325, -61052.22535755937, -90292.88921271435, -0.056, 1.006, 0.048, 192.0, 0.0, 0.0, 0.0, 0.0, 0.0, 0.0, 0.0, 0.0, 0.0, 1.727471132187153E9, 0.0, 2024-09-27 16:05:32.187
146.0, 14641.823129871265, 54926.77449307138, -52408.35874180302, -48983.803270316515, -49953.46664827665, -32241.117327346485, -43132.09422017267, -57628.988638995725, -44088.57006890417, -42733.24969211217, -94463.56826586346, -25587.11476172385, -50577.54970521328, -45447.511428297934, -61022.78811011173, -90274.58313400544, -0.056, 1.006, 0.048, 192.0, 0.0, 0.0, 0.0, 0.0, 0.0, 0.0, 0.0, 0.0, 0.0, 1.7274711321871688E9, 0.0, 2024-09-27 16:05:32.187
148.0, 14700.071775921795, 54916.380931899665, -52498.995065569296, -48999.06951177949, -49957.06527913395, -32257.881135687967, -43133.90471147355, -57635.82827279905, -44091.81107185019, -42729.159322876854, -94548.39313607135, -25617.580189416432, -50587.049196606786, -45440.023593905404, -61068.810351945205, -90314.43629436927, -0.056, 1.006, 0.048, 192.0, 0.0, 0.0, 0.0, 0.0, 0.0, 0.0, 0.0, 0.0, 0.0, 1.7274711321871812E9, 0.0, 2024-09-27 16:05:32.187
150.0, 14611.447109156503, 54935.20110073103, -52415.46659653981, -48984.89850579483, -49927.091589819385, -32262.463243301303, -43114.95043217545, -57620.15969993588, -44082.93742930143, -42718.45283728276, -94497.69937964671, -25609.667671879255, -50580.813059903754, -45466.93509422959, -61070.75495371282, -90294.94557320424, -0.062, 1.012, 0.042, 192.0, 127.0, 8.0, 15.5, 80.0, 0.5, 40.0, 0.0, 0.0, 0.0, 1.7274711321871936E9, 0.0, 2024-09-27 16:05:32.187
152.0, 14603.735757319422, 54875.00785291289, -52514.44012098791, -48996.811985589506, -49937.21693005764, -32252.047330385132, -43119.10785664414, -57623.17718543735, -44114.49809247233, -42737.9882619367, -94539.74301096714, -25613.378061458836, -50616.173519632044, -45443.264596851426, -61099.231076148884, -90305.40618960932, -0.062, 1.012, 0.042, 192.0, 0.0, 0.0, 0.0, 0.0, 0.0, 0.0, 0.0, 0.0, 0.0, 1.727471132187206E9, 0.0, 2024-09-27 16:05:32.187
154.0, 14641.912536849088, 54947.33809797026, -52418.08175064108, -49014.58162243148, -49906.2821157315, -32263.402016568427, -43116.671516498514, -57621.00906622518, -44088.03362703724, -42715.524758759115, -94491.97733306616, -25610.807610846474, -50587.49623149589, -45443.398707318156, -61131.305829442244, -90277.62297125137, -0.062, 1.012, 0.042, 192.0, 0.0, 0.0, 0.0, 0.0, 0.0, 0.0, 0.0, 0.0, 0.0, 1.7274711321872177E9, 0.0, 2024-09-27 16:05:32.187
156.0, 14591.039966468808, 54859.76396319437, -52517.3458477671, -49029.177311560794, -49946.20233132867, -32276.34367660805, -43132.4294963395, -57628.854528528995, -44106.809092379706, -42716.30706981505, -94547.65552850433, -25622.74344238561, -50602.24838283639, -45452.4288120781, -61122.54394561577, -90292.24101212515, -0.062, 1.012, 0.042, 192.0, 0.0, 0.0, 0.0, 0.0, 0.0, 0.0, 0.0, 0.0, 0.0, 1.7274711321872294E9, 0.0, 2024-09-27 16:05:32.187
158.0, 14603.691053830511, 54893.47039383297, -52422.46269255432, -49031.479541239685, -49926.84572063038, -32294.783865783676, -43114.704562986444, -57617.92452549035, -44142.48247653037, -42744.64908178438, -94534.04331613104, -25622.184648774226, -50627.03646743733, -45458.79905924786, -61178.17743756503, -90293.78328249256, -0.062, 1.012, 0.042, 192.0, 0.0, 0.0, 0.0, 0.0, 0.0, 0.0, 0.0, 0.0, 0.0, 1.7274711321872413E9, 0.0, 2024-09-27 16:05:32.187
160.0, 14591.151725191085, 54845.36943976515, -52494.45766144487, -49050.143247859865, -49964.95544492667, -32296.259080917727, -43107.440246038466, -57608.98382770823, -44127.03742111176, -42729.159322876854, -94542.84990344643, -25623.7492708861, -50601.15314735808, -45448.360794587235, -61128.33304742969, -90293.38095109236, -0.074, 1.034, 0.038, 192.0, 126.5, 88.0, 16.0, 40.0, 0.5, 24.0, 0.0, 0.0, 0.0, 1.7274711321872532E9, 0.0, 2024-09-27 16:05:32.187
162.0, 14581.473419841937, 54815.708674872956, -52429.19056763537, -49072.42793708181, -49959.61337800186, -32344.5835524301, -43079.254696280324, -57601.808917738075, -44128.84791241264, -42747.55480856357, -94553.77990648507, -25664.250631839113, -50599.476766523934, -45455.75922200194, -61226.323095121756, -90308.69189604424, -0.074, 1.034, 0.038, 192.0, 0.0, 0.0, 0.0, 0.0, 0.0, 0.0, 0.0, 0.0, 0.0, 1.727471132187266E9, 0.0, 2024-09-27 16:05:32.187
164.0, 14514.507593453836, 54718.255069047824, -52524.565461226164, -49132.86705408896, -50028.03206777955, -32365.8400614071, -43098.74541744535, -57614.392949866415, -44182.089767705176, -42719.19044484979, -94593.00721800415, -25679.561576791, -50633.76434251837, -45462.129469171705, -61201.02092039835, -90325.3662974079, -0.074, 1.034, 0.038, 192.0, 0.0, 0.0, 0.0, 0.0, 0.0, 0.0, 0.0, 0.0, 0.0, 1.7274711321872785E9, 0.0, 2024-09-27 16:05:32.187
166.0, 14456.594223570137, 54699.68076940546, -52437.23719563928, -49158.72802242375, -49971.906837452276, -32374.959573144864, -43037.658099849, -57577.22199883724, -44178.714654292424, -42749.05237544208, -94626.8924625984, -25719.66060634382, -50631.61857505066, -45471.94188498758, -61319.306352055835, -90344.94642555076, -0.074, 1.034, 0.038, 192.0, 0.0, 0.0, 0.0, 0.0, 0.0, 0.0, 0.0, 0.0, 0.0, 1.7274711321872947E9, 0.0, 2024-09-27 16:05:32.187
168.0, 14383.883998857022, 54618.633344010515, -52501.27494350373, -49217.446055107845, -50025.439265422734, -32368.946953886385, -43052.25378897831, -57583.547542518085, -44197.19954695697, -42792.079483518544, -94619.3822764614, -25786.268804820636, -50616.73231324343, -45482.62601883722, -61287.94685458504, -90353.26127448813, -0.074, 1.034, 0.038, 192.0, 0.0, 0.0, 0.0, 0.0, 0.0, 0.0, 0.0, 0.0, 0.0, 1.727471132187307E9, 0.0, 2024-09-27 16:05:32.187
170.0, 14353.083294997608, 54669.70708009089, -52430.196396135856, -49250.727802601796, -49999.935924999234, -32411.594082307114, -43020.246090918314, -57561.396963762876, -44204.77678832731, -42774.98039901023, -94659.1460298474, -25802.76439222865, -50623.90722321358, -45458.59789354776, -61431.66857143266, -90360.43618445829, -0.088, 1.076, 0.04, 192.0, 126.5, 32.0, 16.5, 80.0, 0.5, 32.0, 0.0, 0.0, 0.0, 1.7274711321873188E9, 0.0, 2024-09-27 16:05:32.187
172.0, 14323.690751038881, 54594.739329187796, -52496.044635301194, -49328.37776283953, -50076.08831835846, -32448.67562635847, -43045.99530053083, -57571.34349004549, -44222.25585249136, -42797.1533295099, -94648.70776518676, -25847.333770672532, -50620.107426656185, -45517.830016354324, -61404.53355366392, -90398.72472271022, -0.088, 1.076, 0.04, 192.0, 0.0, 0.0, 0.0, 0.0, 0.0, 0.0, 0.0, 0.0, 0.0, 1.7274711321873333E9, 0.0, 2024-09-27 16:05:32.187
174.0, 14316.895820724467, 54505.242944388745, -52484.62289388453, -49382.96072279939, -50049.154466289816, -32471.764978380797, -43039.40153591651, -57588.84490595399, -44229.60957641716, -42815.012373329686, -94698.19452741081, -25860.275430712158, -50624.644830780606, -45489.26448694045, -61581.62642498332, -90398.9929436437, -0.088, 1.076, 0.04, 192.0, 0.0, 0.0, 0.0, 0.0, 0.0, 0.0, 0.0, 0.0, 0.0, 1.7274711321873465E9, 0.0, 2024-09-27 16:05:32.187
176.0, 14353.709143842358, 54356.335622827486, -52513.9930860988, -49425.630202964574, -50101.39049308187, -32477.509376705813, -43046.5093906533, -57579.77009770514, -44227.55321592727, -42844.226103332774, -94655.592102479, -25869.73021861675, -50612.93251668603, -45517.137112276214, -61589.650701242776, -90404.89380417988, -0.088, 1.076, 0.04, 192.0, 0.0, 0.0, 0.0, 0.0, 0.0, 0.0, 0.0, 0.0, 0.0, 1.7274711321873586E9, 0.0, 2024-09-27 16:05:32.187
178.0, 14342.488568125793, 54270.43786888575, -52491.507231176765, -49490.1820409515, -50088.82881269799, -32517.630758003088, -43020.201387429406, -57571.54465574559, -44200.77582606982, -42799.56731791107, -94723.07201898957, -25891.92550086087, -50599.767339201855, -45501.04385626839, -61768.9787470077, -90422.05994392156, -0.088, 1.076, 0.04, 192.0, 0.0, 0.0, 0.0, 0.0, 0.0, 0.0, 0.0, 0.0, 0.0, 1.7274711321873705E9, 0.0, 2024-09-27 16:05:32.187
180.0, 14324.629524306003, 54175.64412065079, -52463.00875699625, -49588.44030957703, -50145.84811280348, -32518.189551614472, -43119.890167700076, -57622.48428135923, -44222.43466644701, -42845.25428357772, -94656.95555889077, -25864.16463424738, -50576.745042412884, -45548.56366498038, -61787.485991416695, -90437.97438597375, -0.094, 1.058, 0.034, 192.0, 126.5, 8.0, 16.5, 8.0, 0.5, 8.0, 0.0, 0.0, 0.0, 1.7274711321873825E9, 0.0, 2024-09-27 16:05:32.187
182.0, 14371.903463828978, 54104.34205583836, -52449.95533823435, -49627.533510629364, -50137.5332638661, -32542.798822259763, -43124.069943913215, -57657.08478177605, -44195.63492484509, -42841.163914342396, -94685.0517016711, -25830.145279186403, -50634.68076404104, -45515.594841908794, -61987.26588335823, -90436.4991708397, -0.094, 1.058, 0.034, 192.0, 0.0, 0.0, 0.0, 0.0, 0.0, 0.0, 0.0, 0.0, 0.0, 1.7274711321873949E9, 0.0, 2024-09-27 16:05:32.187
184.0, 14459.611709071603, 54008.52012735845, -52413.633753494476, -49627.77937981837, -50146.1386854814, -32531.19826688746, -43132.85417948415, -57610.83902249802, -44171.74091002237, -42872.277542624186, -94603.40077917586, -25835.576753089044, -50605.31057182677, -45516.86889134275, -62036.395017671, -90412.76161822816, -0.094, 1.058, 0.034, 192.0, 0.0, 0.0, 0.0, 0.0, 0.0, 0.0, 0.0, 0.0, 0.0, 1.7274711321874068E9, 0.0, 2024-09-27 16:05:32.187
186.0, 14528.097454082663, 53390.29322746912, -52439.13709391798, -49594.38587360214, -50134.29226092008, -32533.992234944373, -43134.418801596024, -57598.70202525879, -44147.95865392192, -42848.361176057006, -94644.8856168849, -25797.95876717076, -50599.70028396849, -45477.84274552378, -62241.047589903785, -90391.12512959541, -0.094, 1.058, 0.034, 192.0, 0.0, 0.0, 0.0, 0.0, 0.0, 0.0, 0.0, 0.0, 0.0, 1.7274711321874187E9, 0.0, 2024-09-27 16:05:32.187
188.0, 14542.000239133864, 52780.850563150714, -52416.04774189565, -49548.676556191036, -50173.43016546132, -32549.884325252096, -43198.99299132741, -57651.161569495394, -44140.85079918514, -42904.68757208438, -94567.30271188053, -25807.949996942283, -50591.072510608734, -45525.4966647025, -62296.837544064234, -90389.35934178345, -0.08499999999999999, 1.0230000000000001, 0.049, 192.0, 126.5, 80.0, 15.0, 112.0, 1.0, 0.0, 0.0, 0.0, 0.0, 1.727471132187464E9, 0.0, 2024-09-27 16:05:32.187
190.0, 14606.619132354157, 52332.47456937726, -52451.96699523533, -49414.655496437015, -50124.25632765965, -32475.877699360575, -43182.72092136394, -57616.71753128977, -44137.900368917035, -42926.659336883946, -94628.72530564372, -25808.017052175648, -50622.92374645755, -45523.26149025697, -62465.660269935164, -90385.20191731477, -0.08499999999999999, 1.0230000000000001, 0.049, 192.0, 0.0, 0.0, 0.0, 0.0, 0.0, 0.0, 0.0, 0.0, 0.0, 1.7274711321874764E9, 0.0, 2024-09-27 16:05:32.187
192.0, 14657.692868434533, 52086.40421466878, -52380.44141297835, -49338.50310307778, -50102.50808030464, -32429.90016101601, -43234.19698884452, -57614.63881905542, -44109.178377291966, -42941.79146788019, -94530.22116782918, -25780.747923940173, -50601.019036891346, -45504.10604525877, -62488.45904927958, -90282.04861665353, -0.08499999999999999, 1.0230000000000001, 0.049, 192.0, 0.0, 0.0, 0.0, 0.0, 0.0, 0.0, 0.0, 0.0, 0.0, 1.7274711321874883E9, 0.0, 2024-09-27 16:05:32.187
194.0, 14692.04749966234, 51703.965867038474, -52400.17800333238, -49313.75972196576, -50065.650053697835, -32321.896531807964, -43270.406814862115, -57628.74276980672, -44093.73332187335, -42939.35512773456, -94568.15207816983, -25754.976362583206, -50589.619647219144, -45459.62607379271, -62621.071949132915, -90203.07990349292, -0.08499999999999999, 1.0230000000000001, 0.049, 192.0, 0.0, 0.0, 0.0, 0.0, 0.0, 0.0, 0.0, 0.0, 0.0, 1.7274711321875005E9, 0.0, 2024-09-27 16:05:32.187
196.0, 14680.737516967954, 51287.105832946996, -52278.428051284325, -49338.525454822244, -50058.60925419441, -32231.036690597142, -43302.705085600035, -57657.732982365254, -44092.48162418385, -42981.51051777727, -94491.21737375467, -25737.229077485692, -50619.191005133514, -45486.85049853927, -62645.94944071167, -90057.10066045531, -0.08499999999999999, 1.0230000000000001, 0.049, 192.0, 0.0, 0.0, 0.0, 0.0, 0.0, 0.0, 0.0, 0.0, 0.0, 1.7274711321875165E9, 0.0, 2024-09-27 16:05:32.187
198.0, 14709.213639404017, 50912.28943017596, -52260.74782142018, -49214.562680073104, -50007.64727683631, -32032.754365534114, -43254.13474489865, -57638.577537367055, -44059.37869064554, -42971.27341881674, -94516.0054583556, -25669.235070852646, -50628.93636571603, -45477.775690290415, -62666.6918595662, -89888.68026598457, -0.0725, 0.9565000000000001, 0.08549999999999999, 192.0, 127.0, 16.0, 13.5, 104.0, 1.5, 104.0, 0.0, 0.0, 0.0, 1.7274711321875305E9, 0.0, 2024-09-27 16:05:32.187
200.0, 14729.956058258542, 50571.022995832325, -52121.69761916371, -49158.660967190386, -49971.10217465189, -31934.496096908584, -43245.574026772265, -57639.96334552328, -44013.84818719008, -42969.06059611566, -94423.67040201073, -25588.679383835723, -50598.15801360107, -45455.42394583511, -62641.47909182061, -89714.47076969991, -0.0725, 0.9565000000000001, 0.08549999999999999, 192.0, 0.0, 0.0, 0.0, 0.0, 0.0, 0.0, 0.0, 0.0, 0.0, 1.7274711321875432E9, 0.0, 2024-09-27 16:05:32.187
0.0, 8056.663937170975, 24796.980595228746, -24679.544529860563, -21616.930856338844, -24208.54857069833, -14455.700153791924, -21662.081380138563, -28050.16524197641, -22007.92992209553, -21502.86990438341, -47254.09117389812, -12802.766299577512, -25329.86853478772, -22734.36161689301, -31323.779383156227, -44837.621729090424, -0.024, 0.9540000000000001, 0.162, 192.0, 127.5, 32.0, 14.5, 104.0, 2.5, 8.0, 0.0, 0.0, 0.0, 1.7274711327401216E9, 0.0, 2024-09-27 16:05:32.740
2.0, 16098.95570265719, 49562.4005272866, -49397.26583925079, -43244.61290176069, -48480.57609564973, -28911.44501107276, -43347.296815788366, -56117.138995783214, -41231.30187169336, -52359.229607490255, -93339.76725813953, -21699.87818001249, -48898.01727509705, -44434.79859051688, -59407.04755867095, -85577.47579544495, -0.024, 0.9540000000000001, 0.162, 192.0, 0.0, 0.0, 0.0, 0.0, 0.0, 0.0, 0.0, 0.0, 0.0, 1.7274711327401688E9, 0.0, 2024-09-27 16:05:32.740
4.0, 16113.484336553138, 49302.941477649394, -49448.33957533116, -43275.05597770882, -48482.92302881754, -28992.15716030087, -43324.11805678822, -56139.91542338317, -41816.80581770013, -52963.5537223284, -93437.1538087313, -21688.232921151273, -48909.86369965836, -44511.17450132066, -59519.0968536254, -85604.56610972478, -0.024, 0.9540000000000001, 0.162, 192.0, 0.0, 0.0, 0.0, 0.0, 0.0, 0.0, 0.0, 0.0, 0.0, 1.7274711327402012E9, 0.0, 2024-09-27 16:05:32.740
6.0, 16106.152964371797, 49240.78127631918, -49435.286156569266, -43357.377452537716, -48548.547750538324, -29012.251378566194, -43369.96148466605, -56179.54506630243, -42367.865725501266, -53429.07350409908, -93350.47374373362, -21646.14458634193, -48929.77910396804, -44439.69362255259, -59428.68404730369, -85569.45151918549, -0.025, 0.972, 0.173, 192.0, 127.5, 24.0, 15.0, 120.0, 2.5, 96.0, 0.0, 0.0, 0.0, 1.727471132740221E9, 0.0, 2024-09-27 16:05:32.740
8.0, 16161.585290620958, 48877.72189113163, -49495.59116310968, -43387.95463895257, -48535.047296887315, -29110.95668208083, -43340.63599594069, -56143.51405424048, -42608.973992940664, -53806.99679934941, -93441.91473030028, -21612.125231280952, -48900.76653966505, -44403.66261049064, -59535.32422009996, -85589.72455140646, -0.025, 0.972, 0.173, 192.0, 0.0, 0.0, 0.0, 0.0, 0.0, 0.0, 0.0, 0.0, 0.0, 1.7274711327403047E9, 0.0, 2024-09-27 16:05:32.740
10.0, 16106.108260882887, 48847.547036116965, -49438.080124626176, -43490.951477402625, -48582.745919554945, -29198.463761623356, -43375.48236554651, -56169.77735397546, -42880.39122586146, -54180.1368212863, -93329.37369696781, -21599.340033452518, -48869.60820789435, -44449.841314535304, -59482.238827018606, -85564.78000459433, -0.025, 0.972, 0.173, 192.0, 0.0, 0.0, 0.0, 0.0, 0.0, 0.0, 0.0, 0.0, 0.0, 1.7274711327403193E9, 0.0, 2024-09-27 16:05:32.740
12.0, 16105.348301571406, 48457.86672328314, -49551.29171029231, -43546.85319028535, -48612.585498402776, -29240.21682026587, -43381.67379876063, -56190.74329027454, -43073.42089097749, -54509.31096187961, -93471.44138472574, -21641.29425779513, -48871.86573408434, -44405.853081447254, -59551.3057173855, -85609.3046795493, -0.025, 0.972, 0.173, 192.0, 0.0, 0.0, 0.0, 0.0, 0.0, 0.0, 0.0, 0.0, 0.0, 1.7274711327403328E9, 0.0, 2024-09-27 16:05:32.740
14.0, 16115.987731932133, 48470.65192111158, -49421.1151505846, -43546.272044929516, -48607.422245433605, -29276.02431488327, -43380.8914877047, -56166.37988881826, -43168.818136312744, -54659.648795086, -93340.50486570655, -21592.99213802721, -48857.60532112185, -44410.01050591595, -59506.95985638617, -85555.86165855666, -0.025, 0.972, 0.173, 192.0, 0.0, 0.0, 0.0, 0.0, 0.0, 0.0, 0.0, 0.0, 0.0, 1.7274711327403464E9, 0.0, 2024-09-27 16:05:32.740
16.0, 16101.660263736281, 48118.16491105138, -49548.96712886896, -43670.346578400924, -48633.05969632384, -29308.94843446594, -43404.71844729405, -56210.23401143957, -43261.15319265761, -54737.49992102384, -93419.51828235606, -21615.94737958281, -48890.417681982246, -44376.996979355456, -59530.42918806424, -85578.50397568989, -0.0315, 0.987, 0.1835, 192.0, 127.0, 104.0, 15.5, 40.0, 3.0, 8.0, 0.0, 0.0, 0.0, 1.7274711327403598E9, 0.0, 2024-09-27 16:05:32.740
18.0, 16107.270551594562, 48199.23468819079, -49429.78762743326, -43772.628161028406, -48604.896498310154, -29321.823039272196, -43365.37937705271, -56188.0610809399, -43345.3298622763, -54854.578358480736, -93340.66132791774, -21646.971600886776, -48856.711251343644, -44380.95323812404, -59545.136635915835, -85560.33200744772, -0.0315, 0.987, 0.1835, 192.0, 0.0, 0.0, 0.0, 0.0, 0.0, 0.0, 0.0, 0.0, 0.0, 1.7274711327403736E9, 0.0, 2024-09-27 16:05:32.740
20.0, 16065.070458062943, 47933.47244661718, -49566.71441396647, -43880.855307681006, -48644.70495518505, -29371.712132896442, -43378.544554536886, -56202.03092122447, -43415.469636377056, -54967.43231623559, -93421.3511254014, -21707.366014405015, -48869.60820789435, -44422.61688978874, -59542.72264751466, -85601.07923758976, -0.0315, 0.987, 0.1835, 192.0, 0.0, 0.0, 0.0, 0.0, 0.0, 0.0, 0.0, 0.0, 0.0, 1.7274711327403867E9, 0.0, 2024-09-27 16:05:32.740
22.0, 16074.458190734173, 48042.951290959274, -49433.34155480166, -43984.74621590927, -48623.78372237489, -29335.547010367754, -43386.81469998535, -56189.67040654068, -43520.90281497274, -55051.743096321, -93399.17819490173, -21749.990791081287, -48834.85124526635, -44445.10274471078, -59585.12390674638, -85594.23960378642, -0.0315, 0.987, 0.1835, 192.0, 0.0, 0.0, 0.0, 0.0, 0.0, 0.0, 0.0, 0.0, 0.0, 1.7274711327404006E9, 0.0, 2024-09-27 16:05:32.740
24.0, 16038.807158327958, 47856.78361139102, -49522.32384947823, -44072.052129751704, -48629.10343755525, -29382.686839423997, -43408.78646478492, -56203.72965380307, -43442.31408146788, -55103.107405079296, -93430.18006446125, -21804.149067896495, -48823.34009687187, -44436.25145390647, -59560.00054597862, -85601.36981026767, -0.0315, 0.987, 0.1835, 192.0, 0.0, 0.0, 0.0, 0.0, 0.0, 0.0, 0.0, 0.0, 0.0, 1.727471132740414E9, 0.0, 2024-09-27 16:05:32.740
26.0, 16071.843036632901, 48003.12048233992, -49385.709987367394, -44023.258271605766, -48583.26000967741, -29299.5159983058, -43403.377342626736, -56190.27390364098, -43435.18387498664, -55101.09574807832, -93367.61753173084, -21782.534931008213, -48771.6628636912, -44390.85506091775, -59609.80023262504, -85580.91796409106, -0.03775, 0.9835, 0.19575, 192.0, 127.0, 80.0, 15.0, 80.0, 3.0, 64.0, 0.0, 0.0, 0.0, 1.7274711327404273E9, 0.0, 2024-09-27 16:05:32.740
28.0, 16030.134681479298, 47848.02172756454, -49517.87585233162, -44052.44964986439, -48634.95959460254, -29350.90265880855, -43441.37530820075, -56206.613028837804, -43494.6171634933, -55132.745818227035, -93409.95173572919, -21808.194733642904, -48792.02530288998, -44398.20878484354, -59571.08701122845, -85570.70321687499, -0.03775, 0.9835, 0.19575, 192.0, 0.0, 0.0, 0.0, 0.0, 0.0, 0.0, 0.0, 0.0, 0.0, 1.7274711327404456E9, 0.0, 2024-09-27 16:05:32.740
30.0, 16058.923728337733, 47985.88728736488, -49391.63319964805, -43951.46446841532, -48582.7682712994, -29393.080400595714, -43413.59208984281, -56157.08156312485, -43399.376380369235, -55146.33567885586, -93394.08199716592, -21823.282161150237, -48761.98455834205, -44398.11937786572, -59652.51441627913, -85559.63910336961, -0.03775, 0.9835, 0.19575, 192.0, 0.0, 0.0, 0.0, 0.0, 0.0, 0.0, 0.0, 0.0, 0.0, 1.7274711327404587E9, 0.0, 2024-09-27 16:05:32.740
32.0, 16003.78197476649, 47916.61923129788, -49502.47550040192, -43891.45003455282, -48660.597045492774, -29422.40588932108, -43447.767907114976, -56199.773395034485, -43412.85448227578, -55164.79821977595, -93393.70201751018, -21872.299536740727, -48751.2557210035, -44399.438130788585, -59557.13952268834, -85570.41264419707, -0.03775, 0.9835, 0.19575, 192.0, 0.0, 0.0, 0.0, 0.0, 0.0, 0.0, 0.0, 0.0, 0.0, 1.7274711327404723E9, 0.0, 2024-09-27 16:05:32.740
34.0, 16040.416483928739, 48034.25646236616, -49405.64774342153, -43791.850661259974, -48610.3726757017, -29456.98403799344, -43388.55813605287, -56148.40908627619, -43406.90891825067, -55154.15878941522, -93430.42593365026, -21868.00800180531, -48711.4472641286, -44417.20776763055, -59649.36282031093, -85568.78096685183, -0.03775, 0.9835, 0.19575, 192.0, 0.0, 0.0, 0.0, 0.0, 0.0, 0.0, 0.0, 0.0, 0.0, 1.727471132740486E9, 0.0, 2024-09-27 16:05:32.740
36.0, 15987.241683869564, 48002.22641256171, -49501.134395734596, -43779.71366402074, -48687.50854581696, -29496.300756490324, -43425.63968010422, -56176.2593598675, -43376.71171149155, -55126.800254201924, -93396.4959855671, -21883.05072582373, -48709.413255383166, -44399.52753776641, -59522.80724320498, -85562.72364410445, -0.046875, 0.98775, 0.206875, 192.0, 127.0, 32.0, 15.5, 0.0, 3.0, 104.0, 0.0, 0.0, 0.0, 1.7274711327404993E9, 0.0, 2024-09-27 16:05:32.740
38.0, 16011.35921613684, 48066.174753448344, -49432.469836767894, -43714.535977189065, -48647.00718486395, -29521.22295155799, -43384.95950519556, -56162.82596144986, -43340.61364419623, -55120.89939366572, -93441.802971578, -21897.6687666975, -48690.30251387388, -44394.56545049733, -59632.50960499163, -85586.48354846044, -0.046875, 0.98775, 0.206875, 192.0, 0.0, 0.0, 0.0, 0.0, 0.0, 0.0, 0.0, 0.0, 0.0, 1.7274711327405128E9, 0.0, 2024-09-27 16:05:32.740
40.0, 15994.014262439521, 48099.43414919784, -49478.35796813464, -43712.25609925462, -48684.20048763758, -29549.542611782865, -43373.5377637789, -56159.2049788481, -43295.39606516315, -55117.12194885278, -93380.91681968175, -21898.585188220168, -48672.04113865389, -44373.48775547597, -59498.06386209296, -85561.96368479297, -0.046875, 0.98775, 0.206875, 192.0, 0.0, 0.0, 0.0, 0.0, 0.0, 0.0, 0.0, 0.0, 0.0, 1.7274711327405262E9, 0.0, 2024-09-27 16:05:32.740
42.0, 16007.98410272409, 48126.56916696658, -49445.210331107424, -43718.80516038003, -48646.11311508574, -29609.400583434177, -43364.12767936321, -56143.87168215176, -43235.67220397857, -55099.21820154408, -93435.18685521923, -21858.664972622988, -48654.96440589004, -44375.454708988036, -59602.89354358835, -85570.50205117489, -0.046875, 0.98775, 0.206875, 192.0, 0.0, 0.0, 0.0, 0.0, 0.0, 0.0, 0.0, 0.0, 0.0, 1.7274711327405393E9, 0.0, 2024-09-27 16:05:32.740
44.0, 16013.616742326825, 48243.9381771014, -49471.58538956468, -43760.69232948928, -48706.01579022596, -29638.77077564845, -43356.55043799287, -56166.64810975172, -43248.435050062544, -55137.90907119621, -93374.34540681189, -21875.674650153476, -48681.92060970314, -44421.34284035479, -59469.40892570125, -85592.6526299301, -0.046875, 0.98775, 0.206875, 192.0, 0.0, 0.0, 0.0, 0.0, 0.0, 0.0, 0.0, 0.0, 0.0, 1.727471132740553E9, 0.0, 2024-09-27 16:05:32.740
46.0, 16043.679838619215, 48271.02849138123, -49450.57474977669, -43689.88200305486, -48659.25594082546, -29646.124499574245, -43335.137466804685, -56162.13305737175, -43183.21265974196, -55087.21531477157, -93446.38507919134, -21852.026504519763, -48655.61260647924, -44395.861851675734, -59561.855740768406, -85596.92181312107, -0.059437500000000004, 0.9978750000000001, 0.2164375, 192.0, 126.5, 96.0, 15.5, 64.0, 3.5, 8.0, 0.0, 0.0, 0.0, 1.7274711327405665E9, 0.0, 2024-09-27 16:05:32.740
48.0, 16061.471827205638, 48430.262318880836, -49444.24920609584, -43622.71501096666, -48720.61147935528, -29671.73959872003, -43365.42408054163, -56172.77248773247, -43145.97465347942, -55062.0472505149, -93348.43973498819, -21846.46092015039, -48635.518388213924, -44398.36524705473, -59439.54699510897, -85581.23088851344, -0.059437500000000004, 0.9978750000000001, 0.2164375, 192.0, 0.0, 0.0, 0.0, 0.0, 0.0, 0.0, 0.0, 0.0, 0.0, 1.72747113274058E9, 0.0, 2024-09-27 16:05:32.740
50.0, 16078.839132647412, 48410.59278376017, -49478.93911349048, -43541.06408847142, -48699.33261863382, -29740.873544320293, -43358.1821153381, -56161.77542946046, -43116.872682198606, -55038.39910488118, -93451.9059600718, -21843.063454993186, -48627.538815443375, -44411.105741394254, -59534.78777823303, -85615.42905753005, -0.059437500000000004, 0.9978750000000001, 0.2164375, 192.0, 0.0, 0.0, 0.0, 0.0, 0.0, 0.0, 0.0, 0.0, 0.0, 1.7274711327405975E9, 0.0, 2024-09-27 16:05:32.740
52.0, 16099.514496268572, 48604.42711167659, -49434.995583891345, -43448.46081119309, -48746.15952326769, -29656.786281679426, -43387.01586568545, -56196.912371744205, -43053.661948879, -54983.23499956549, -93340.34840349537, -21818.20831515888, -48624.38721947518, -44405.76367446943, -59432.595602583366, -85592.67498167456, -0.059437500000000004, 0.9978750000000001, 0.2164375, 192.0, 0.0, 0.0, 0.0, 0.0, 0.0, 0.0, 0.0, 0.0, 0.0, 1.7274711327406108E9, 0.0, 2024-09-27 16:05:32.740
54.0, 16085.142324583809, 48451.16119994655, -49517.60763139816, -43364.50765901896, -48738.82815108635, -29708.776439282472, -43383.84191797279, -56196.353578132825, -42998.60960228558, -54911.709417308506, -93448.84377108143, -21823.930361739443, -48630.86922536722, -44371.65491243064, -59536.3524003449, -85590.79743514031, -0.059437500000000004, 0.9978750000000001, 0.2164375, 192.0, 0.0, 0.0, 0.0, 0.0, 0.0, 0.0, 0.0, 0.0, 0.0, 1.7274711327406242E9, 0.0, 2024-09-27 16:05:32.740
56.0, 16101.436746291727, 48558.538980309844, -49469.61843605262, -43215.242709546415, -48751.97097682607, -29707.30122414842, -43390.72625526503, -56187.614046050796, -42965.46196525836, -54816.60274465117, -93361.31433979445, -21805.69133826391, -48614.127768770195, -44418.794741486876, -59485.81510613145, -85596.96651660997, -0.066, 1.006, 0.24, 192.0, 126.5, 120.0, 15.5, 56.0, 3.5, 64.0, 0.0, 0.0, 0.0, 1.7274711327406414E9, 0.0, 2024-09-27 16:05:32.740
58.0, 16066.948004597189, 48306.21013715388, -49589.87082122217, -43090.743492930356, -48745.98070931205, -29718.074764975878, -43389.85453723127, -56196.37592987728, -42918.70211585786, -54650.41752462596, -93466.99338757913, -21787.474666532835, -48619.223966506004, -44389.49160450597, -59602.42415695479, -85605.9072143921, -0.066, 1.006, 0.24, 192.0, 0.0, 0.0, 0.0, 0.0, 0.0, 0.0, 0.0, 0.0, 0.0, 1.7274711327406557E9, 0.0, 2024-09-27 16:05:32.740
60.0, 16076.492199479604, 48416.31483034073, -49509.873927816625, -43013.4511606039, -48749.71345063609, -29728.69184359215, -43419.31413642337, -56189.60335130732, -42872.255190879725, -54500.23615363076, -93382.8390697049, -21777.17051233894, -48608.606887889735, -44425.6343752902, -59627.03342760008, -85601.7050864345, -0.066, 1.006, 0.24, 192.0, 0.0, 0.0, 0.0, 0.0, 0.0, 0.0, 0.0, 0.0, 0.0, 1.7274711327406688E9, 0.0, 2024-09-27 16:05:32.740
62.0, 16065.60689992987, 48177.329978624584, -49623.95723151651, -42964.478488502325, -48740.996270298514, -29721.785154555462, -43410.284031663425, -56190.02803445197, -42840.448658519825, -54300.344502966946, -93481.14204181934, -21786.17826535443, -48637.84296963728, -44407.57416577032, -59726.699856126295, -85622.67102273357, -0.066, 1.006, 0.24, 192.0, 0.0, 0.0, 0.0, 0.0, 0.0, 0.0, 0.0, 0.0, 0.0, 1.7274711327406821E9, 0.0, 2024-09-27 16:05:32.740
64.0, 16072.580644199927, 48318.45889311539, -49512.64554412908, -42921.69724961487, -48728.05461025889, -29721.136953966256, -43412.58626134232, -56168.2574353525, -42789.978419539744, -54050.92138659018, -93378.65929349176, -21735.529212418704, -48606.66228612212, -44413.966764684534, -59750.035077337634, -85575.82176635525, -0.066, 1.006, 0.24, 192.0, 0.0, 0.0, 0.0, 0.0, 0.0, 0.0, 0.0, 0.0, 0.0, 1.7274711327406995E9, 0.0, 2024-09-27 16:05:32.740
66.0, 16028.391245411784, 48088.66060837038, -49652.411002208115, -42928.5815869071, -48741.443305187626, -29716.867770775294, -43438.06725002137, -56226.52843314748, -42744.31380561755, -53887.28426543287, -93467.57453293497, -21751.30954400415, -48644.749658673965, -44395.0795406198, -59835.821072557104, -85606.5554149813, -0.056, 0.988, 0.246, 192.0, 127.0, 32.0, 15.0, 112.0, 3.5, 88.0, 0.0, 0.0, 0.0, 1.727471132740713E9, 0.0, 2024-09-27 16:05:32.740
68.0, 16044.37274269733, 48231.68942113989, -49537.59009094121, -42934.46009569885, -48732.5026074055, -29721.472230133088, -43460.687215410144, -56251.62944217079, -42698.805653906544, -53751.3856591446, -93397.41240708977, -21746.570974179624, -48633.46202772403, -44430.99879395948, -59899.56824774364, -85586.01416182687, -0.056, 0.988, 0.246, 192.0, 0.0, 0.0, 0.0, 0.0, 0.0, 0.0, 0.0, 0.0, 0.0, 1.7274711327407267E9, 0.0, 2024-09-27 16:05:32.740
70.0, 16029.486480890095, 48017.55970925805, -49668.23603728248, -42952.252084285275, -48751.52394193697, -29711.570407339386, -43444.03516579094, -56235.53618616297, -42657.54433364205, -53592.04007292272, -93477.6104661954, -21777.818712928143, -48669.358929319256, -44435.5361980839, -59949.45734136789, -85627.74486872493, -0.056, 0.988, 0.246, 192.0, 0.0, 0.0, 0.0, 0.0, 0.0, 0.0, 0.0, 0.0, 0.0, 1.72747113274074E9, 0.0, 2024-09-27 16:05:32.740
72.0, 16066.120990052343, 48198.18415620139, -49531.197492026986, -42931.621424153025, -48701.16546167916, -29686.670564016174, -43455.18868627414, -56218.70532258813, -42580.20729782669, -53341.07468617853, -93403.49208158161, -21752.69535216038, -48643.18503656209, -44419.37588684272, -60023.08398760367, -85577.63225765614, -0.056, 0.988, 0.246, 192.0, 0.0, 0.0, 0.0, 0.0, 0.0, 0.0, 0.0, 0.0, 0.0, 1.7274711327407575E9, 0.0, 2024-09-27 16:05:32.740
74.0, 16014.421405127217, 48054.48479109821, -49642.48682766996, -42964.45613675787, -48718.30924967638, -29691.0068024405, -43474.34413127234, -56251.003593326044, -42527.948919290175, -53140.37837271433, -93449.13434375935, -21773.303660548172, -48688.849650484284, -44421.588709543794, -60035.93624066547, -85607.11420859268, -0.056, 0.988, 0.246, 192.0, 0.0, 0.0, 0.0, 0.0, 0.0, 0.0, 0.0, 0.0, 0.0, 1.7274711327407706E9, 0.0, 2024-09-27 16:05:32.740
76.0, 16032.83924255839, 48226.325002470614, -49501.000285267866, -42953.23556104131, -48664.55330426137, -29650.930124632137, -43470.23141029256, -56244.11925603381, -42471.86839245181, -52937.64805050469, -93415.91965149876, -21760.07142783063, -48655.031461123406, -44442.621701076234, -60133.211032534964, -85588.8081298838, -0.042, 0.9560000000000001, 0.246, 192.0, 127.0, 88.0, 14.5, 112.0, 3.5, 88.0, 0.0, 0.0, 0.0, 1.7274711327407837E9, 0.0, 2024-09-27 16:05:32.740
78.0, 16028.927687278712, 48184.05785370563, -49604.466510351485, -43003.57168955466, -48702.9983047245, -29696.371221109777, -43487.30814305641, -56256.94915735116, -42415.43023770216, -52773.809763647296, -93436.63971860883, -21796.303605592682, -48691.35304586328, -44479.23385849403, -60065.28408113529, -85619.8099994433, -0.042, 0.9560000000000001, 0.246, 192.0, 0.0, 0.0, 0.0, 0.0, 0.0, 0.0, 0.0, 0.0, 0.0, 1.7274711327407973E9, 0.0, 2024-09-27 16:05:32.740
80.0, 16050.206548000164, 48385.312960781215, -49479.65436931305, -42988.46191030287, -48647.8341994088, -29640.91654311616, -43462.005968333004, -56231.75874135003, -42310.198224806576, -52636.480645713884, -93425.32973591445, -21789.12869562253, -48670.81179270885, -44475.5458206589, -60166.15750386209, -85607.94122313753, -0.042, 0.9560000000000001, 0.246, 192.0, 0.0, 0.0, 0.0, 0.0, 0.0, 0.0, 0.0, 0.0, 0.0, 1.7274711327408104E9, 0.0, 2024-09-27 16:05:32.740
82.0, 16022.535088364493, 48395.99709463085, -49576.370367571166, -43041.68141385096, -48728.32283119236, -29666.911621917683, -43497.23231759457, -56252.054125315444, -42211.761142225405, -52471.05538500016, -93414.2432706646, -21791.967367168352, -48675.95269393357, -44477.35631195978, -60081.1314679541, -85591.28917351832, -0.042, 0.9560000000000001, 0.246, 192.0, 0.0, 0.0, 0.0, 0.0, 0.0, 0.0, 0.0, 0.0, 0.0, 1.7274711327408257E9, 0.0, 2024-09-27 16:05:32.740
84.0, 16078.61561520286, 48585.9198672676, -49473.75350877685, -43018.301489150705, -48663.905103672165, -29643.218772795055, -43454.16050602919, -56226.819005825404, -42088.915954699034, -52311.37452261145, -93453.38117520585, -21799.097573649597, -48683.8428597263, -44502.27850702745, -60186.139963405134, -85611.0034121279, -0.042, 0.9560000000000001, 0.246, 192.0, 0.0, 0.0, 0.0, 0.0, 0.0, 0.0, 0.0, 0.0, 0.0, 1.7274711327408388E9, 0.0, 2024-09-27 16:05:32.740
86.0, 16051.525300923027, 48703.624153569246, -49536.651317674085, -43057.52880066977, -48725.59591836881, -29635.52977270243, -43492.40434079222, -56249.193102025165, -41946.937673918925, -52143.33410779645, -93395.78072974453, -21803.098535907095, -48668.06252814085, -44472.28246596843, -60042.820577957704, -85600.52044397837, -0.03, 0.962, 0.23800000000000002, 192.0, 127.5, 8.0, 15.0, 8.0, 3.5, 56.0, 0.0, 0.0, 0.0, 1.7274711327408524E9, 0.0, 2024-09-27 16:05:32.740
88.0, 16093.814801432467, 48885.500298202074, -49481.80013678076, -43054.98070180186, -48691.665970285656, -29669.593831252318, -43449.98072981605, -56216.80542430943, -41834.84367547556, -52002.2275450501, -93454.43170719525, -21805.870152219555, -48660.15001060367, -44495.908259857686, -60136.56379420326, -85613.9091389071, -0.03, 0.962, 0.23800000000000002, 192.0, 0.0, 0.0, 0.0, 0.0, 0.0, 0.0, 0.0, 0.0, 0.0, 1.7274711327408664E9, 0.0, 2024-09-27 16:05:32.740
90.0, 16073.385307000317, 49093.32681814752, -49506.69998010397, -43045.30239645272, -48735.11776150677, -29594.268452437933, -43492.024361136486, -56261.62067194232, -41750.577598879056, -51894.626247242246, -93392.65148552078, -21825.27146640676, -48678.27727535692, -44532.609824253304, -59982.76144060629, -85618.73711570945, -0.03, 0.962, 0.23800000000000002, 192.0, 0.0, 0.0, 0.0, 0.0, 0.0, 0.0, 0.0, 0.0, 0.0, 1.72747113274088E9, 0.0, 2024-09-27 16:05:32.740
92.0, 16081.23076930413, 49155.39761249991, -49487.83510778369, -43032.65130909101, -48671.68351074261, -29595.207225705057, -43413.65914507618, -56234.77622685149, -41656.45440297775, -51793.90928672663, -93469.29561725803, -21847.824376562166, -48688.13439466171, -44516.62832696776, -60068.88271199259, -85641.93822645405, -0.03, 0.962, 0.23800000000000002, 192.0, 0.0, 0.0, 0.0, 0.0, 0.0, 0.0, 0.0, 0.0, 0.0, 1.7274711327408931E9, 0.0, 2024-09-27 16:05:32.740
94.0, 16048.150187510275, 49260.026128295205, -49503.63779111359, -43069.08465255316, -48723.673668345655, -29587.317059912333, -43468.06329108039, -56280.03850937349, -41583.967695709194, -51703.56353563828, -93376.0888428794, -21861.302478468715, -48693.49881333099, -44502.680838427645, -59935.91218422797, -85630.47178154848, -0.03, 0.962, 0.23800000000000002, 192.0, 0.0, 0.0, 0.0, 0.0, 0.0, 0.0, 0.0, 0.0, 0.0, 1.727471132740911E9, 0.0, 2024-09-27 16:05:32.740
96.0, 16054.498082935583, 49180.8562494345, -49520.51335817735, -43043.13427724055, -48682.45705157007, -29593.106161726257, -43436.52497965396, -56263.00648009855, -41523.12624730185, -51627.38879053459, -93479.35390226293, -21889.398621249034, -48699.08674944482, -44522.43978052614, -60032.80699644172, -85679.08682573878, -0.018000000000000002, 0.988, 0.23600000000000002, 192.0, 127.5, 56.0, 15.0, 112.0, 3.5, 48.0, 0.0, 0.0, 0.0, 1.7274711327409244E9, 0.0, 2024-09-27 16:05:32.740
98.0, 16050.65358288927, 49274.063023813134, -49502.78842482429, -43041.860227806596, -48721.863177044776, -29601.108086241256, -43489.25274482402, -56286.744032710085, -41494.73953184361, -51560.13239146858, -93390.48336630862, -21898.62989170908, -48716.901089775696, -44537.10252488882, -59929.25136438029, -85667.6203808332, -0.018000000000000002, 0.988, 0.23600000000000002, 192.0, 0.0, 0.0, 0.0, 0.0, 0.0, 0.0, 0.0, 0.0, 0.0, 1.727471132740938E9, 0.0, 2024-09-27 16:05:32.740
100.0, 16075.687536679214, 49136.48803669072, -49537.16540779656, -43020.268442662775, -48667.41432755165, -29616.57549340433, -43441.5541221564, -56273.06476510344, -41414.0720861044, -51451.86054132707, -93490.1721465793, -21898.62989170908, -48721.997287511505, -44525.81489393889, -60017.518403234295, -85684.6747618526, -0.018000000000000002, 0.988, 0.23600000000000002, 192.0, 0.0, 0.0, 0.0, 0.0, 0.0, 0.0, 0.0, 0.0, 0.0, 1.7274711327409513E9, 0.0, 2024-09-27 16:05:32.740
102.0, 16115.272476109563, 49245.45279091034, -49480.41432862453, -43022.59302408613, -48682.65821727017, -29623.303368485376, -43462.07302356637, -56255.71981140612, -41340.624253824266, -51284.26716140118, -93365.51646775204, -21848.807853318198, -48681.60768528077, -44500.870347126765, -59919.75187298678, -85636.99849092943, -0.018000000000000002, 0.988, 0.23600000000000002, 192.0, 0.0, 0.0, 0.0, 0.0, 0.0, 0.0, 0.0, 0.0, 0.0, 1.7274711327409644E9, 0.0, 2024-09-27 16:05:32.740
104.0, 16106.510592283083, 49081.36863486393, -49546.575492212236, -43044.453030163415, -48669.850667697276, -29670.756121963994, -43454.89811359622, -56264.436991743685, -41270.90916286816, -51159.05268896255, -93462.07600379897, -21849.187832973937, -48692.51533657496, -44491.48261445554, -59997.602998924616, -85659.01495921791, -0.025, 0.992, 0.234, 192.0, 127.5, 0.0, 15.5, 16.0, 3.5, 32.0, 0.0, 0.0, 0.0, 1.7274711327409775E9, 0.0, 2024-09-27 16:05:32.740
106.0, 16096.51936251156, 49221.983459232266, -49478.3803198791, -43070.805736876224, -48690.52603131843, -29640.894191371703, -43487.19638433414, -56282.60895998585, -41208.03370571539, -51008.46898656714, -93362.5883892284, -21836.51439386778, -48695.19754590959, -44504.714847173076, -59921.271791609746, -85645.40274684463, -0.025, 0.992, 0.234, 192.0, 0.0, 0.0, 0.0, 0.0, 0.0, 0.0, 0.0, 0.0, 0.0, 1.7274711327409914E9, 0.0, 2024-09-27 16:05:32.740
108.0, 16095.714699711169, 49042.387192533875, -49574.112841381175, -43089.15651907403, -48684.513412059954, -29718.052413231424, -43457.893247353226, -56255.60805268384, -41135.435239724546, -50898.967790480594, -93464.64645441133, -21847.734969584344, -48719.71740957707, -44533.14626612023, -59942.438893608916, -85666.99453198846, -0.025, 0.992, 0.234, 192.0, 0.0, 0.0, 0.0, 0.0, 0.0, 0.0, 0.0, 0.0, 0.0, 1.7274711327410047E9, 0.0, 2024-09-27 16:05:32.741
110.0, 16112.456156308193, 49193.73085424076, -49478.961465234934, -43068.8164316197, -48676.19856312258, -29638.591961692808, -43478.50155574102, -56279.45736401765, -41060.53454405481, -50788.728986827016, -93368.71276720914, -21826.143184440516, -48706.7981012819, -44510.794521664924, -59878.49055272229, -85637.89256070764, -0.025, 0.992, 0.234, 192.0, 0.0, 0.0, 0.0, 0.0, 0.0, 0.0, 0.0, 0.0, 0.0, 1.727471132741018E9, 0.0, 2024-09-27 16:05:32.741
112.0, 16113.461984808682, 48973.07443297797, -49589.73671075544, -43070.20223977593, -48666.207333351056, -29682.82606396986, -43472.22071554908, -56277.311596549946, -40955.8166212817, -50693.75642463642, -93452.73297461665, -21827.864268763577, -48710.821415283855, -44484.933553330135, -59910.073567637635, -85646.20740964502, -0.025, 0.992, 0.234, 192.0, 0.0, 0.0, 0.0, 0.0, 0.0, 0.0, 0.0, 0.0, 0.0, 1.7274711327410312E9, 0.0, 2024-09-27 16:05:32.741
114.0, 16121.508612812593, 49118.941917293305, -49488.7291775619, -43069.062300808706, -48678.12081314574, -29695.723020520574, -43499.22162285109, -56296.9364281817, -40884.671018680456, -50647.13068570265, -93371.50673526607, -21849.6572196075, -48714.710618819074, -44525.18904509414, -59876.81417188814, -85643.77106949939, -0.0285, 0.994, 0.23500000000000001, 192.0, 127.5, 0.0, 15.5, 16.0, 3.5, 48.0, 0.0, 0.0, 0.0, 1.7274711327410443E9, 0.0, 2024-09-27 16:05:32.741
116.0, 16103.314292825973, 48919.20672884068, -49608.91450749809, -43055.38303320206, -48687.039159183405, -29729.183581970166, -43488.313971556905, -56281.82664892991, -40806.97635495381, -50591.81011817576, -93461.7630793766, -21877.19456877644, -48740.77275285396, -44518.57292873537, -59880.97159635682, -85673.61064834722, -0.0285, 0.994, 0.23500000000000001, 192.0, 0.0, 0.0, 0.0, 0.0, 0.0, 0.0, 0.0, 0.0, 0.0, 1.7274711327410657E9, 0.0, 2024-09-27 16:05:32.741
118.0, 16126.336589614939, 49073.18789639329, -49484.214125181934, -43027.80098054421, -48652.75158318896, -29685.3071076044, -43473.94179987214, -56286.54286700999, -40715.53536838715, -50519.41281788502, -93385.45422380617, -21853.971106287376, -48713.30245891839, -44530.10642887431, -59878.267035277735, -85650.65540679163, -0.0285, 0.994, 0.23500000000000001, 192.0, 0.0, 0.0, 0.0, 0.0, 0.0, 0.0, 0.0, 0.0, 0.0, 1.7274711327410796E9, 0.0, 2024-09-27 16:05:32.741
120.0, 16097.748708456602, 48902.219403054645, -49605.226469662965, -43074.516126455805, -48662.787516449396, -29710.139895694247, -43489.02922737947, -56295.6400270033, -40662.4499753058, -50480.27491334378, -93445.53571290204, -21882.916615356997, -48735.72125860707, -44514.19198682213, -59849.545043652666, -85661.83127901927, -0.0285, 0.994, 0.23500000000000001, 192.0, 0.0, 0.0, 0.0, 0.0, 0.0, 0.0, 0.0, 0.0, 0.0, 1.727471133220032E9, 0.0, 2024-09-27 16:05:33.220
122.0, 16139.725284543669, 49040.95668088874, -49477.732119289896, -43066.08951879615, -48614.23952749247, -29677.796921467416, -43443.498723924014, -56251.651793915255, -40579.54735512106, -50415.54426140121, -93399.44641583519, -21860.296649968226, -48721.32673517785, -44522.32802180386, -59888.70529993836, -85643.70401426603, -0.0285, 0.994, 0.23500000000000001, 192.0, 0.0, 0.0, 0.0, 0.0, 0.0, 0.0, 0.0, 0.0, 0.0, 1.7274711332200825E9, 0.0, 2024-09-27 16:05:33.220
124.0, 16107.941103928222, 48868.22239973812, -49614.793016289834, -43153.55189484977, -48662.787516449396, -29757.547945683953, -43508.67641075569, -56301.71970149514, -40535.53677028856, -50392.767833801256, -93429.62127084986, -21879.42974322197, -48732.54731089441, -44520.18225433615, -59813.62579031299, -85642.02763343188, -0.03425, 0.989, 0.2335, 192.0, 127.0, 96.0, 15.0, 96.0, 3.5, 32.0, 0.0, 0.0, 0.0, 1.7274711332201157E9, 0.0, 2024-09-27 16:05:33.220
126.0, 16138.741807787635, 49015.09571255395, -49504.353046936165, -43146.01935696833, -48630.66805966712, -29743.332236210375, -43495.444178038146, -56308.33581785391, -40501.718580927685, -50354.97103392733, -93437.19851222022, -21878.356859488114, -48738.22465398606, -44559.029586199475, -59913.493384539295, -85678.59508736075, -0.03425, 0.989, 0.2335, 192.0, 0.0, 0.0, 0.0, 0.0, 0.0, 0.0, 0.0, 0.0, 0.0, 1.7274711332201304E9, 0.0, 2024-09-27 16:05:33.220
128.0, 16116.61358077688, 49038.85561690994, -49600.21967890498, -43200.199985527994, -48692.40357785268, -29744.114547266312, -43523.965003963116, -56343.919795026755, -40433.61281557236, -50289.927457562386, -93402.91093622577, -21845.879774794554, -48730.69211610462, -44489.04627430991, -59808.55194432163, -85624.90619717911, -0.03425, 0.989, 0.2335, 192.0, 0.0, 0.0, 0.0, 0.0, 0.0, 0.0, 0.0, 0.0, 0.0, 1.7274711332201445E9, 0.0, 2024-09-27 16:05:33.220
130.0, 16146.833139280456, 49301.15333809297, -49477.66506405653, -43202.90454660709, -48638.044135337375, -29732.044605260446, -43521.75218126204, -56334.95674550018, -40379.40983526824, -50274.84003005506, -93405.23551764913, -21841.02944624775, -48737.5541016524, -44510.77216992047, -59877.52942771071, -85625.3085285793, -0.03425, 0.989, 0.2335, 192.0, 0.0, 0.0, 0.0, 0.0, 0.0, 0.0, 0.0, 0.0, 0.0, 1.7274711332201583E9, 0.0, 2024-09-27 16:05:33.220
132.0, 16137.870089753878, 49343.24167290231, -49573.71050998098, -43270.675035795575, -48700.38315062322, -29765.46046322113, -43559.0795945024, -56361.93530105774, -40324.17867471918, -50267.95569276282, -93384.4930987946, -21853.74758884282, -48743.320851721866, -44527.84890268432, -59740.62499292195, -85635.09859265073, -0.03425, 0.989, 0.2335, 192.0, 0.0, 0.0, 0.0, 0.0, 0.0, 0.0, 0.0, 0.0, 0.0, 1.7274711332201724E9, 0.0, 2024-09-27 16:05:33.220
134.0, 16148.330706158962, 49483.588276337185, -49502.29668644627, -43259.43210833456, -48660.52999025941, -29766.913326610724, -43524.76966676351, -56343.87509153785, -40260.92323791066, -50249.649614053924, -93415.4502648652, -21848.964315529385, -48737.28588071893, -44519.33288804685, -59845.477026161796, -85637.46787756299, -0.042125, 0.9875, 0.23375, 192.0, 127.0, 56.0, 15.0, 104.0, 3.5, 40.0, 0.0, 0.0, 0.0, 1.7274711332201855E9, 0.0, 2024-09-27 16:05:33.220
136.0, 16150.677639326768, 49545.122628822646, -49558.71248945147, -43297.60888786422, -48707.13337744873, -29779.318544783422, -43526.200178408646, -56376.1063070424, -40236.55983645438, -50239.07723892656, -93380.80506095948, -21874.490007697346, -48751.38983147023, -44539.71767899009, -59711.67948385233, -85645.84978173373, -0.042125, 0.9875, 0.23375, 192.0, 0.0, 0.0, 0.0, 0.0, 0.0, 0.0, 0.0, 0.0, 0.0, 1.727471133220219E9, 0.0, 2024-09-27 16:05:33.220
138.0, 16172.828218081979, 49636.31774620029, -49491.16551770753, -43274.18425967506, -48650.762277932445, -29741.186468742668, -43458.74261364253, -56309.67692252123, -40157.61347503823, -50221.84404395152, -93427.69902082671, -21874.221786763883, -48733.57549113935, -44514.013172866486, -59797.84545872754, -85652.48824983696, -0.042125, 0.9875, 0.23375, 192.0, 0.0, 0.0, 0.0, 0.0, 0.0, 0.0, 0.0, 0.0, 0.0, 1.7274711332202322E9, 0.0, 2024-09-27 16:05:33.220
140.0, 16148.9118515148, 49702.79183421038, -49523.55319542327, -43310.3717339482, -48700.83018551233, -29732.379881427278, -43500.09334088485, -56341.751675814594, -40140.64850099665, -50222.04520965162, -93362.20840957266, -21888.77277240429, -48740.660994131686, -44521.210434581095, -59641.94204115177, -85646.9673689565, -0.042125, 0.9875, 0.23375, 192.0, 0.0, 0.0, 0.0, 0.0, 0.0, 0.0, 0.0, 0.0, 0.0, 1.7274711332202454E9, 0.0, 2024-09-27 16:05:33.220
142.0, 16165.787418578557, 49625.074818739275, -49524.38020996812, -43287.79647204834, -48672.219952609536, -29729.49650639254, -43482.79309067644, -56351.94407128621, -40089.395950960636, -50231.14236964493, -93448.1061635144, -21892.393755006047, -48744.281976733444, -44511.12979783175, -59749.61039419298, -85668.20152618903, -0.042125, 0.9875, 0.23375, 192.0, 0.0, 0.0, 0.0, 0.0, 0.0, 0.0, 0.0, 0.0, 0.0, 1.7274711332202592E9, 0.0, 2024-09-27 16:05:33.220
144.0, 16157.561976619003, 49655.80846736532, -49538.48416071942, -43306.259012968425, -48721.863177044776, -29726.59077961335, -43523.249748140544, -56366.986795304634, -40077.10249151022, -50235.43390458035, -93369.56213349845, -21897.95933937542, -48736.660031874184, -44524.51849276048, -59650.45805578924, -85653.44937484854, -0.0480625, 0.98375, 0.231875, 192.0, 127.0, 40.0, 15.0, 80.0, 3.5, 24.0, 0.0, 0.0, 0.0, 1.7274711332202728E9, 0.0, 2024-09-27 16:05:33.220
146.0, 16191.357814235427, 49527.218881513945, -49549.503570735884, -43272.932561985566, -48682.3899963367, -29744.047492032947, -43502.6190880083, -56348.99364101811, -40048.17933418505, -50207.60598273349, -93464.5123439446, -21882.00019383433, -48750.853389603304, -44499.48453897054, -59763.49082749973, -85658.07618595079, -0.0480625, 0.98375, 0.231875, 192.0, 0.0, 0.0, 0.0, 0.0, 0.0, 0.0, 0.0, 0.0, 0.0, 1.7274711332202868E9, 0.0, 2024-09-27 16:05:33.220
148.0, 16174.839875082956, 49590.63078053365, -49523.0391053008, -43299.53113788738, -48717.50458687599, -29742.46051817662, -43514.0184776805, -56353.32987944244, -40025.15703739608, -50195.13370932743, -93362.00724387256, -21877.37338273208, -48735.52009290697, -44522.52918750396, -59655.37543956941, -85638.5631130413, -0.0480625, 0.98375, 0.231875, 192.0, 0.0, 0.0, 0.0, 0.0, 0.0, 0.0, 0.0, 0.0, 0.0, 1.7274711332203174E9, 0.0, 2024-09-27 16:05:33.220
150.0, 16156.042057996043, 49357.256216675785, -49599.16914691558, -43310.84112058176, -48722.77959856744, -29781.26314655103, -43499.13221587327, -56361.68943186873, -39995.63038297062, -50205.21434607677, -93482.88547788686, -21889.95741486042, -48730.62506087125, -44519.57875723586, -59760.16041757589, -85666.54749709935, -0.0480625, 0.98375, 0.231875, 192.0, 0.0, 0.0, 0.0, 0.0, 0.0, 0.0, 0.0, 0.0, 0.0, 1.7274711332203324E9, 0.0, 2024-09-27 16:05:33.220
152.0, 16171.084782014465, 49408.709932411904, -49534.349087995186, -43339.8313331403, -48763.05744207591, -29755.446881705153, -43551.90468453225, -56391.35019676092, -40001.97827839592, -50225.19680561982, -93400.83222399143, -21907.034147624272, -48732.68142136114, -44536.83430395536, -59692.300521409576, -85676.40461640414, -0.0480625, 0.98375, 0.231875, 192.0, 0.0, 0.0, 0.0, 0.0, 0.0, 0.0, 0.0, 0.0, 0.0, 1.727471133220353E9, 0.0, 2024-09-27 16:05:33.220
154.0, 16179.332575718472, 49136.286870990625, -49599.347960871215, -43352.95180713556, -48708.921517005154, -29781.106684339844, -43427.53957838292, -56340.991716503115, -39933.09020198467, -50210.35524730149, -93489.59100122345, -21902.94377838895, -48720.63383109973, -44505.09482682882, -59770.598682236516, -85708.50172144196, -0.06, 0.994, 0.216, 192.0, 127.0, 16.0, 15.5, 8.0, 3.0, 96.0, 0.0, 0.0, 0.0, 1.7274711332203667E9, 0.0, 2024-09-27 16:05:33.220
156.0, 16183.82527635399, 49219.01067721971, -49517.40646569806, -43378.768071981445, -48733.26256671698, -29747.400253701242, -43460.7095671546, -56351.58644337493, -39941.2262369664, -50169.049223548085, -93383.33080808292, -21886.67170842549, -48707.46865361556, -44517.500045001514, -59710.04780650709, -85659.26082840691, -0.06, 0.994, 0.216, 192.0, 0.0, 0.0, 0.0, 0.0, 0.0, 0.0, 0.0, 0.0, 0.0, 1.7274711332203815E9, 0.0, 2024-09-27 16:05:33.220
158.0, 16166.949709290233, 48956.891769992326, -49638.374106690186, -43415.469636377056, -48753.06621230438, -29784.638259963784, -43499.8698234403, -56396.49109798564, -39915.029992464784, -50182.77319464364, -93481.6114284529, -21892.639624195057, -48735.09540976232, -44509.609879208794, -59773.68322297135, -85688.9215932991, -0.06, 0.994, 0.216, 192.0, 0.0, 0.0, 0.0, 0.0, 0.0, 0.0, 0.0, 0.0, 0.0, 1.7274711332203994E9, 0.0, 2024-09-27 16:05:33.220
160.0, 16179.846665840945, 49064.44836431126, -49540.696983420494, -43402.393865870705, -48749.10995353579, -29770.13197781229, -43526.49075108657, -56395.082938084954, -39916.59461457666, -50178.30284575258, -93383.53197378301, -21857.212109233395, -48701.59014482381, -44512.85088215481, -59769.83872292504, -85657.24917140594, -0.06, 0.994, 0.216, 192.0, 0.0, 0.0, 0.0, 0.0, 0.0, 0.0, 0.0, 0.0, 0.0, 1.7274711332204127E9, 0.0, 2024-09-27 16:05:33.220
162.0, 16169.274290713585, 48828.83862600788, -49650.13112427368, -43373.67187424563, -48753.17797102666, -29817.65178652427, -43528.3235941319, -56407.84578416894, -39931.883207784085, -50184.851906877986, -93477.00696909512, -21859.402580190013, -48710.26262167247, -44502.32321051636, -59811.79294726765, -85666.05575872133, -0.06, 0.994, 0.216, 192.0, 0.0, 0.0, 0.0, 0.0, 0.0, 0.0, 0.0, 0.0, 0.0, 1.7274711332204263E9, 0.0, 2024-09-27 16:05:33.220
164.0, 16208.747471421657, 48991.291104709046, -49510.41036968355, -43336.50092321646, -48744.88547383374, -29838.930647245725, -43505.927146187685, -56375.48045819765, -39865.56558198519, -50185.41070048937, -93367.97515964213, -21831.507603109792, -48683.01584518145, -44518.77409443547, -59809.669531544394, -85627.25313034691, -0.064, 0.99, 0.216, 192.0, 127.0, 0.0, 15.0, 120.0, 3.0, 96.0, 0.0, 0.0, 0.0, 1.727471133220444E9, 0.0, 2024-09-27 16:05:33.220
166.0, 16192.16247703582, 48788.694892966145, -49638.06118226781, -43330.734173146986, -48779.44127076164, -29813.047327166478, -43509.95046018964, -56382.096574556424, -39877.74728271333, -50174.10071779499, -93439.94777678822, -21841.297667181214, -48702.52891809093, -44477.91510557117, -59805.98149370927, -85638.71957525249, -0.064, 0.99, 0.216, 192.0, 0.0, 0.0, 0.0, 0.0, 0.0, 0.0, 0.0, 0.0, 0.0, 1.7274711332204583E9, 0.0, 2024-09-27 16:05:33.220
168.0, 16216.280009303095, 48923.274746331546, -49512.06439877325, -43304.314411200816, -48764.73382291005, -29805.157161373754, -43488.98452389056, -56355.98973703262, -39876.04855013473, -50169.943293326294, -93389.9469244417, -21832.714597310376, -48678.41138582366, -44499.84216688182, -59856.83171234509, -85637.57963628527, -0.064, 0.99, 0.216, 192.0, 0.0, 0.0, 0.0, 0.0, 0.0, 0.0, 0.0, 0.0, 0.0, 1.7274711332204716E9, 0.0, 2024-09-27 16:05:33.220
170.0, 16166.569729634492, 48672.95756017656, -49657.08251679927, -43322.48637944298, -48808.94557344265, -29823.977330205125, -43510.37514333429, -56409.723330703186, -39893.59466953214, -50215.250279337204, -93446.02745128005, -21883.05072582373, -48683.30641785937, -44514.12493158876, -59812.50820309022, -85688.36279968772, -0.064, 0.99, 0.216, 192.0, 0.0, 0.0, 0.0, 0.0, 0.0, 0.0, 0.0, 0.0, 0.0, 1.7274711332204847E9, 0.0, 2024-09-27 16:05:33.220
172.0, 16200.946712606754, 48738.559930152885, -49544.072096833246, -43260.03560543485, -48771.6628636912, -29767.09214056637, -43503.58021301988, -56374.31816748597, -39900.45665507992, -50224.72741898626, -93446.27332046906, -21898.13815333106, -48692.38122610822, -44551.51940006249, -59913.76160547276, -85720.0352215809, -0.064, 0.99, 0.216, 192.0, 0.0, 0.0, 0.0, 0.0, 0.0, 0.0, 0.0, 0.0, 0.0, 1.727471133220498E9, 0.0, 2024-09-27 16:05:33.220
174.0, 16175.510427416615, 48555.49914306392, -49653.23801675296, -43256.056994921804, -48783.95632314162, -29723.08155573387, -43483.955381388114, -56367.903216827304, -39916.97459423239, -50243.078201184064, -93444.28401521254, -21905.82715342369, -48715.93996476412, -44509.49812048652, -59858.753962368246, -85712.23446276599, -0.048, 0.998, 0.22, 192.0, 127.0, 64.0, 15.5, 24.0, 3.0, 112.0, 0.0, 0.0, 0.0, 1.7274711332205112E9, 0.0, 2024-09-27 16:05:33.220
176.0, 16217.822279670512, 48637.328879514804, -49522.03327680031, -43206.88315712013, -48722.31021193388, -29704.283738646955, -43488.33632330136, -56349.53008288504, -39890.82305321968, -50263.95473050532, -93419.16065444479, -21883.967147346397, -48692.22476389704, -44535.962585921596, -59943.17650117594, -85698.89047132617, -0.048, 0.998, 0.22, 192.0, 0.0, 0.0, 0.0, 0.0, 0.0, 0.0, 0.0, 0.0, 0.0, 1.7274711332205267E9, 0.0, 2024-09-27 16:05:33.220
178.0, 16183.691165887258, 48512.539090220824, -49625.25363269492, -43212.40403800059, -48778.815421916894, -29666.911621917683, -43543.52278036151, -56387.550400203516, -39931.99496650636, -50313.48619621828, -93409.9964392181, -21884.28007176877, -48712.83307228483, -44533.43683879815, -59868.16404678393, -85705.55129117386, -0.048, 0.998, 0.22, 192.0, 0.0, 0.0, 0.0, 0.0, 0.0, 0.0, 0.0, 0.0, 0.0, 1.7274711332205412E9, 0.0, 2024-09-27 16:05:33.220
180.0, 16199.292683517062, 48557.60020704272, -49545.100277078185, -43175.657770116064, -48722.86900554526, -29697.06412518789, -43527.161303420224, -56354.626280620854, -39958.302969730255, -50323.276260289706, -93438.42785816525, -21859.17906274546, -48714.64356358571, -44496.3552947468, -59997.44653671343, -85686.3734944312, -0.048, 0.998, 0.22, 192.0, 0.0, 0.0, 0.0, 0.0, 0.0, 0.0, 0.0, 0.0, 0.0, 1.7274711332205591E9, 0.0, 2024-09-27 16:05:33.220
182.0, 16179.332575718472, 48534.644965487125, -49598.096263181724, -43197.40601747108, -48772.13225032476, -29698.360526366298, -43557.13499273479, -56371.63595815134, -39985.41563575454, -50369.23144688982, -93398.1947181457, -21846.013885261284, -48726.802912569394, -44504.916012873175, -59913.38162581702, -85675.64465709265, -0.048, 0.998, 0.22, 192.0, 0.0, 0.0, 0.0, 0.0, 0.0, 0.0, 0.0, 0.0, 0.0, 1.7274711332205727E9, 0.0, 2024-09-27 16:05:33.220
184.0, 16197.929227105287, 48567.1667536696, -49530.482236204414, -43189.67231388955, -48730.35683993779, -29669.169148107667, -43527.22835865359, -56364.14812375881, -39980.14062406309, -50458.37020377758, -93443.03231752304, -21865.32579247067, -48700.606668067776, -44522.260966570495, -60022.52519399228, -85685.21120371953, -0.042, 0.99, 0.22, 192.0, 127.0, 88.0, 15.0, 120.0, 3.0, 112.0, 0.0, 0.0, 0.0, 1.727471133220586E9, 0.0, 2024-09-27 16:05:33.220
186.0, 16206.44524174276, 48528.78880843983, -49587.09920490971, -43220.763590426875, -48774.434480003656, -29684.01070642599, -43525.75314351954, -56371.72536512916, -39998.33494404971, -50478.21855285389, -93396.74185475611, -21863.04591453623, -48728.03225851444, -44508.33582977484, -59926.32328585664, -85678.95271527204, -0.042, 0.99, 0.22, 192.0, 0.0, 0.0, 0.0, 0.0, 0.0, 0.0, 0.0, 0.0, 0.0, 1.7274711332206E9, 0.0, 2024-09-27 16:05:33.220
188.0, 16230.40631179885, 48430.57524330321, -49552.47635274844, -43230.77717194286, -48724.92536603515, -29694.046639686425, -43475.104090583816, -56342.06460023697, -39996.3903422821, -50574.91219936755, -93472.06723357049, -21878.155693788016, -48722.66783984516, -44499.685704670635, -60063.67475553451, -85708.92640458661, -0.042, 0.99, 0.22, 192.0, 0.0, 0.0, 0.0, 0.0, 0.0, 0.0, 0.0, 0.0, 0.0, 1.7274711332206132E9, 0.0, 2024-09-27 16:05:33.220
190.0, 16193.68239565878, 48302.27623012975, -49576.68329199354, -43312.31633571581, -48782.63757021875, -29690.000973940012, -43531.74341103356, -56396.133470074354, -40005.979240653425, -50653.76915380587, -93401.63688679182, -21895.52299922979, -48723.58426136783, -44503.731370417045, -59952.18425419143, -85709.9322330871, -0.042, 0.99, 0.22, 192.0, 0.0, 0.0, 0.0, 0.0, 0.0, 0.0, 0.0, 0.0, 0.0, 1.7274711332206268E9, 0.0, 2024-09-27 16:05:33.220
192.0, 16214.223648813208, 48036.58104378951, -49569.73189946794, -43315.80320785084, -48710.93317400613, -29655.132252589734, -43417.50364512249, -56318.95289647018, -40003.25232782988, -50756.29660562237, -93495.80478618202, -21915.48310702838, -48723.248985201004, -44505.29599252892, -60086.49588662337, -85742.69989045858, -0.04, 0.997, 0.21400000000000002, 192.0, 127.0, 104.0, 15.5, 48.0, 3.0, 64.0, 0.0, 0.0, 0.0, 1.7274711332206404E9, 0.0, 2024-09-27 16:05:33.220
194.0, 16203.606570196936, 47996.57142121452, -49548.43068700203, -43366.36285380874, -48751.36747972578, -29661.614258481775, -43452.81940136187, -56332.85568152138, -39996.97148763794, -50809.15848125917, -93379.19573535869, -21883.52011245729, -48706.84280477081, -44491.81789062237, -59984.97426330737, -85698.3763812037, -0.04, 0.997, 0.21400000000000002, 192.0, 0.0, 0.0, 0.0, 0.0, 0.0, 0.0, 0.0, 0.0, 0.0, 1.7274711332206583E9, 0.0, 2024-09-27 16:05:33.220
196.0, 16223.767843695623, 47780.00536918704, -49580.21486761748, -43350.448411756566, -48721.997287511505, -29652.271229299455, -43458.07206130887, -56357.39789693331, -40002.984106896416, -50885.15441240721, -93482.23727729765, -21907.86116216912, -48739.27518597546, -44506.99472510752, -60084.95361625596, -85737.78250667841, -0.04, 0.997, 0.21400000000000002, 192.0, 0.0, 0.0, 0.0, 0.0, 0.0, 0.0, 0.0, 0.0, 0.0, 1.727471133220672E9, 0.0, 2024-09-27 16:05:33.220
198.0, 16233.669666489324, 47820.171453973235, -49535.80195138478, -43340.63599594069, -48759.816439129885, -29652.62885721074, -43502.97671591958, -56369.512542428085, -39993.6410777141, -50875.52081054697, -93366.00820613006, -21868.00800180531, -48720.83499679983, -44492.37668423375, -59996.887743102045, -85688.13928224317, -0.04, 0.997, 0.21400000000000002, 192.0, 0.0, 0.0, 0.0, 0.0, 0.0, 0.0, 0.0, 0.0, 0.0, 1.7274711332206855E9, 0.0, 2024-09-27 16:05:33.220
200.0, 16219.051625615553, 47610.80266366037, -49605.89702199662, -43321.83817885377, -48743.656127888695, -29685.418866326676, -43522.4227335957, -56379.01203382159, -39996.01036262636, -50913.02703774298, -93469.07209981348, -21875.42878096447, -48752.44036345963, -44521.970393892574, -60108.51235491185, -85727.7912769069, -0.04, 0.997, 0.21400000000000002, 192.0, 0.0, 0.0, 0.0, 0.0, 0.0, 0.0, 0.0, 0.0, 0.0, 1.727471133220706E9, 0.0, 2024-09-27 16:05:33.220
202.0, 16236.26246884614, 47706.132853762254, -49539.2441200309, -43294.05496049583, -48761.38106124176, -29650.39368276521, -43554.6315973558, -56391.663121183294, -39976.29612401678, -50874.13500239074, -93357.84981940387, -21841.61059160359, -48722.17610146715, -44467.61095137727, -60049.950784438945, -85677.07516873779, -0.038000000000000006, 0.9924999999999999, 0.20800000000000002, 192.0, 127.0, 112.0, 15.0, 112.0, 3.0, 40.0, 0.0, 0.0, 0.0, 1.72747113322072E9, 0.0, 2024-09-27 16:05:33.220
204.0, 16243.683248005302, 47504.92245017558, -49622.72788557147, -43302.92860304459, -48756.5083809505, -29709.40228812722, -43538.09130645887, -56390.50083047162, -39969.47884195791, -50884.03682518445, -93460.84665785392, -21849.61251611859, -48748.9534913246, -44496.31059125788, -60128.740683643904, -85720.81753263684, -0.038000000000000006, 0.9924999999999999, 0.20800000000000002, 192.0, 0.0, 0.0, 0.0, 0.0, 0.0, 0.0, 0.0, 0.0, 0.0, 1.727471133220734E9, 0.0, 2024-09-27 16:05:33.220
206.0, 16257.161349911852, 47656.6013880493, -49515.32775346372, -43283.974323746486, -48740.16925575367, -29628.600731921284, -43521.439256839665, -56373.17822851876, -39959.912295331036, -50858.26526382748, -93362.76720318403, -21822.61160881658, -48730.44624691561, -44481.916067828664, -60083.590159844185, -85681.1208344842, -0.038000000000000006, 0.9924999999999999, 0.20800000000000002, 192.0, 0.0, 0.0, 0.0, 0.0, 0.0, 0.0, 0.0, 0.0, 0.0, 1.7274711332207472E9, 0.0, 2024-09-27 16:05:33.220
208.0, 16249.628812030413, 47433.374516174146, -49633.188501976554, -43306.72839960199, -48770.165296812695, -29665.34699980581, -43495.84650943834, -56370.60777790639, -39938.90165554305, -50854.845446925814, -93462.76890787708, -21836.290876423227, -48744.013755799984, -44482.51956492896, -60122.169270774044, -85710.96041333204, -0.038000000000000006, 0.9924999999999999, 0.20800000000000002, 192.0, 0.0, 0.0, 0.0, 0.0, 0.0, 0.0, 0.0, 0.0, 0.0, 1.7274711332207603E9, 0.0, 2024-09-27 16:05:33.220
210.0, 16263.799818015077, 47589.948486083566, -49521.7874076113, -43312.15987350463, -48732.14497949422, -29678.579232523352, -43485.96703838909, -56355.96738528817, -39930.832675794685, -50856.76769694897, -93383.53197378301, -21833.6533705775, -48726.48998814702, -44493.449567967604, -60106.165421744045, -85707.4288377081, -0.038000000000000006, 0.9924999999999999, 0.20800000000000002, 192.0, 0.0, 0.0, 0.0, 0.0, 0.0, 0.0, 0.0, 0.0, 0.0, 1.7274711332207763E9, 0.0, 2024-09-27 16:05:33.220
212.0, 16253.853291732466, 47388.80513773026, -49645.39255444915, -43315.93731831757, -48753.64735766022, -29670.86788068627, -43485.60941047781, -56372.306510484996, -39907.966841216905, -50835.131208316234, -93459.70671888671, -21835.910896767487, -48735.49774116251, -44489.22508826555, -60132.96516334596, -85728.4394774961, -0.038000000000000006, 0.99725, 0.20500000000000002, 192.0, 127.0, 104.0, 15.5, 40.0, 3.0, 40.0, 0.0, 0.0, 0.0, 1.7274711332207904E9, 0.0, 2024-09-27 16:05:33.220
214.0, 16283.402297902383, 47574.95046555406, -49515.79714009728, -43289.74107381595, -48739.610462142286, -29644.671636184652, -43475.70758768411, -56371.43479245124, -39900.12137891309, -50821.2954784984, -93389.45518606367, -21818.87886749254, -48722.22080495606, -44487.302838242395, -60152.00884962188, -85698.42108469261, -0.038000000000000006, 0.99725, 0.20500000000000002, 192.0, 0.0, 0.0, 0.0, 0.0, 0.0, 0.0, 0.0, 0.0, 0.0, 1.7274711332208047E9, 0.0, 2024-09-27 16:05:33.220
216.0, 16263.397486614882, 47389.52039355283, -49647.046583538846, -43331.89646385866, -48766.07492757737, -29690.291546617933, -43495.6676954827, -56396.7593189191, -39886.97855317337, -50814.925231328634, -93447.83794258094, -21817.627169803047, -48719.73976132152, -44483.547745173906, -60128.56186968826, -85720.05757332535, -0.038000000000000006, 0.99725, 0.20500000000000002, 192.0, 0.0, 0.0, 0.0, 0.0, 0.0, 0.0, 0.0, 0.0, 0.0, 1.7274711332208188E9, 0.0, 2024-09-27 16:05:33.220
218.0, 16294.13113524093, 47585.4334337036, -49501.067340501235, -43301.54279488836, -48725.26064220198, -29672.477206287054, -43467.6609596802, -56363.0528882805, -39866.79492793023, -50775.87673376522, -93391.31038085347, -21791.31916657915, -48668.06252814085, -44469.75671884498, -60183.2565883704, -85697.97404980351, -0.038000000000000006, 0.99725, 0.20500000000000002, 192.0, 0.0, 0.0, 0.0, 0.0, 0.0, 0.0, 0.0, 0.0, 0.0, 1.7274711332208328E9, 0.0, 2024-09-27 16:05:33.220
220.0, 16251.014620186643, 47434.84973130819, -49642.03979278085, -43340.77010640742, -48775.4626602486, -29690.425657084663, -43507.98350667757, -56414.30543831652, -39865.252657562814, -50744.606643272244, -93428.68249758273, -21801.489210306314, -48716.63286884223, -44491.214393522074, -60114.480270681415, -85719.05174482486, -0.038000000000000006, 0.99725, 0.20500000000000002, 192.0, 0.0, 0.0, 0.0, 0.0, 0.0, 0.0, 0.0, 0.0, 0.0, 1.7274711332208464E9, 0.0, 2024-09-27 16:05:33.220
222.0, 16274.103972208975, 47578.88437257819, -49528.4929309479, -43314.55151016134, -48726.84761605831, -29687.005840183003, -43486.16820408919, -56394.680606684764, -39832.462648446875, -50698.249125271934, -93412.45513110819, -21787.02763164373, -48674.16455437715, -44478.160974760176, -60193.65014954212, -85704.67957314009, -0.033, 1.0006249999999999, 0.2005, 192.0, 127.5, 16.0, 15.5, 48.0, 3.0, 16.0, 0.0, 0.0, 0.0, 1.7274711332208693E9, 0.0, 2024-09-27 16:05:33.220
224.0, 16260.983498213709, 47463.19174327752, -49646.04075503835, -43335.67390867161, -48782.99519813004, -29693.621956541774, -43509.503425300536, -56421.43564479776, -39819.252767473794, -50649.79054329283, -93425.01681149207, -21795.23072185883, -48696.6951127881, -44492.04140806692, -60128.36070398816, -85731.59107346428, -0.033, 1.0006249999999999, 0.2005, 192.0, 0.0, 0.0, 0.0, 0.0, 0.0, 0.0, 0.0, 0.0, 0.0, 1.7274711332208838E9, 0.0, 2024-09-27 16:05:33.220
226.0, 16284.251664191685, 47572.491773663976, -49537.67949791902, -43316.63022239569, -48740.996270298514, -29685.3071076044, -43475.260552795, -56388.86915312638, -39781.97005772234, -50561.12117303863, -93425.66501208127, -21776.45525651637, -48670.70003398658, -44472.26011422397, -60233.57036513929, -85728.90886412965, -0.033, 1.0006249999999999, 0.2005, 192.0, 0.0, 0.0, 0.0, 0.0, 0.0, 0.0, 0.0, 0.0, 0.0, 1.7274711332208972E9, 0.0, 2024-09-27 16:05:33.220
228.0, 16260.402352857871, 47482.235429553446, -49637.01065027841, -43349.68845244509, -48768.04188108944, -29676.098188888813, -43500.540375773955, -56419.73691221916, -39774.81749949664, -50474.977549907875, -93410.15290142929, -21783.294890319692, -48677.27144685644, -44485.96173357507, -60127.08665455421, -85724.01383209394, -0.033, 1.0006249999999999, 0.2005, 192.0, 0.0, 0.0, 0.0, 0.0, 0.0, 0.0, 0.0, 0.0, 0.0, 1.7274711332209103E9, 0.0, 2024-09-27 16:05:33.220
230.0, 16276.629719332424, 47504.96715366449, -49560.411222030074, -43319.04421079686, -48709.30149666089, -29666.688104473127, -43453.557008928896, -56387.550400203516, -39736.551312989155, -50382.21781041835, -93446.0050995356, -21762.798340654175, -48651.90221689966, -44452.52352386994, -60262.80644688683, -85716.54834944586, -0.033, 1.0006249999999999, 0.2005, 192.0, 0.0, 0.0, 0.0, 0.0, 0.0, 0.0, 0.0, 0.0, 0.0, 1.727471133220924E9, 0.0, 2024-09-27 16:05:33.220
232.0, 16261.899919736377, 47435.20735921948, -49635.714249100005, -43393.363761110755, -48788.00198888803, -29715.906645763716, -43511.53743404597, -56450.71643003422, -39747.57072300562, -50303.42791121339, -93413.9974014756, -21777.952823394877, -48647.051888352864, -44525.256100327504, -60150.623041465646, -85737.38017527822, -0.0305, 1.0093125, 0.19125, 192.0, 127.5, 16.0, 15.5, 104.0, 2.5, 88.0, 0.0, 0.0, 0.0, 1.727471133220937E9, 0.0, 2024-09-27 16:05:33.220
234.0, 16275.489780365204, 47431.56402487326, -49566.87087617766, -43353.08591760229, -48744.729011622556, -29673.997124910013, -43477.58513421835, -56449.1741596668, -39725.42014425041, -50218.08895088303, -93480.27032378559, -21786.02180314324, -48664.91093217265, -44509.09578908632, -60267.790885900366, -85759.86603020025, -0.0305, 1.0093125, 0.19125, 192.0, 0.0, 0.0, 0.0, 0.0, 0.0, 0.0, 0.0, 0.0, 0.0, 1.7274711332209508E9, 0.0, 2024-09-27 16:05:33.220
236.0, 16285.592768859002, 47444.751554101895, -49577.890286194124, -43347.34151927728, -48763.88445662075, -29671.91841267567, -43472.37717776027, -56430.15282513533, -39708.589280675566, -50127.050295716566, -93393.38909308781, -21758.64091618549, -48635.38427774719, -44495.505928457496, -60113.787366603305, -85727.34424201777, -0.0305, 1.0093125, 0.19125, 192.0, 0.0, 0.0, 0.0, 0.0, 0.0, 0.0, 0.0, 0.0, 0.0, 1.727471133220965E9, 0.0, 2024-09-27 16:05:33.220
238.0, 16281.323585668039, 47393.96839069944, -49558.98071038493, -43342.558245963846, -48734.2013399841, -29686.06706691588, -43466.498668968525, -56428.20822336772, -39670.30074242363, -50048.28274825606, -93453.04589903902, -21748.135596291497, -48611.08793152427, -44487.90633534269, -60233.79388258385, -85729.60176820777, -0.0305, 1.0093125, 0.19125, 192.0, 0.0, 0.0, 0.0, 0.0, 0.0, 0.0, 0.0, 0.0, 0.0, 1.727471133220979E9, 0.0, 2024-09-27 16:05:33.220
240.0, 16272.02525997463, 47477.16158356209, -49551.51522773686, -43357.1315833487, -48771.68521543565, -29682.58019478085, -43504.49663454254, -56427.87294720089, -39667.52912611117, -50009.234250692636, -93375.26182833455, -21764.02768659922, -48609.165681501116, -44518.908204902196, -60110.88163982411, -85729.24414029648, -0.0305, 1.0093125, 0.19125, 192.0, 0.0, 0.0, 0.0, 0.0, 0.0, 0.0, 0.0, 0.0, 0.0, 1.7274711337014284E9, 0.0, 2024-09-27 16:05:33.701
242.0, 16288.185571215818, 47415.113140954156, -49550.643509703106, -43339.76427790693, -48723.20428171209, -29688.41400008369, -43446.918540825674, -56416.20533659522, -39641.48934382074, -49949.57744474142, -93458.49972468612, -21762.910099376455, -48597.25220170644, -44503.55255646141, -60216.60539109771, -85732.6863089426, -0.036000000000000004, 1.014, 0.18, 192.0, 127.0, 112.0, 15.5, 88.0, 2.5, 80.0, 0.0, 0.0, 0.0, 1.7274711337014716E9, 0.0, 2024-09-27 16:05:33.701
244.0, 16303.22829523424, 47577.923247566614, -49510.499776661374, -43352.683586202096, -48757.156581539704, -29686.268232615977, -43486.07879711137, -56425.12368263289, -39616.0530586306, -49893.56397313643, -93349.55732221095, -21751.130730048506, -48568.48550659246, -44521.18808283664, -60103.438508920495, -85715.78839013439, -0.036000000000000004, 1.014, 0.18, 192.0, 0.0, 0.0, 0.0, 0.0, 0.0, 0.0, 0.0, 0.0, 0.0, 1.7274711337015233E9, 0.0, 2024-09-27 16:05:33.701
246.0, 16302.177763244841, 47534.717325534504, -49546.441381745506, -43331.76235339193, -48745.332508722844, -29685.821197726873, -43492.5160995145, -56430.15282513533, -39590.303849018084, -49837.2152253646, -93442.02648902255, -21749.052017814163, -48574.54282933984, -44520.24930956952, -60193.67250128657, -85740.42001252413, -0.036000000000000004, 1.014, 0.18, 192.0, 0.0, 0.0, 0.0, 0.0, 0.0, 0.0, 0.0, 0.0, 0.0, 1.7274711337015357E9, 0.0, 2024-09-27 16:05:33.701
248.0, 16322.786071632634, 47827.145198243285, -49463.69522377196, -43306.46017866852, -48765.60554094381, -29648.940819375614, -43493.3654658038, -56401.1626125768, -39584.93943034881, -49756.27955869193, -93324.61277539883, -21724.599209380056, -48554.53801805234, -44525.47961777206, -60080.32680515371, -85715.25194826745, -0.036000000000000004, 1.014, 0.18, 192.0, 0.0, 0.0, 0.0, 0.0, 0.0, 0.0, 0.0, 0.0, 0.0, 1.7274711337015471E9, 0.0, 2024-09-27 16:05:33.701
250.0, 16313.197173261307, 47848.15583803128, -49526.8389018582, -43320.40766720864, -48758.25181701801, -29656.518060745962, -43529.977623221595, -56436.210147882724, -39566.610999895456, -49678.38372926518, -93414.98087823164, -21719.57006687761, -48569.08900369275, -44500.64682968221, -60136.787311647815, -85722.42685823761, -0.036000000000000004, 1.014, 0.18, 192.0, 0.0, 0.0, 0.0, 0.0, 0.0, 0.0, 0.0, 0.0, 0.0, 1.7274711337015593E9, 0.0, 2024-09-27 16:05:33.701
252.0, 16343.752007931711, 48241.01009857775, -49418.58940346115, -43317.43488519608, -48739.87868307575, -29665.928145161648, -43550.876504287306, -56427.51531928961, -39562.610037637955, -49616.51410061289, -93313.9286415492, -21729.896572815964, -48558.91895996559, -44531.93927191964, -60004.73320540586, -85726.3384135173, -0.038, 0.99, 0.188, 192.0, 127.0, 104.0, 15.0, 120.0, 2.5, 112.0, 0.0, 0.0, 0.0, 1.7274711337015712E9, 0.0, 2024-09-27 16:05:33.701
254.0, 16316.684045396334, 48255.203456306874, -49514.36662845214, -43324.20746376603, -48751.97097682607, -29675.49469178852, -43563.57229513792, -56439.85348222894, -39546.22620895222, -49551.247006803394, -93408.65533455079, -21736.11035777454, -48591.35134117024, -44546.22203662658, -60025.05094111573, -85747.95255040558, -0.038, 0.99, 0.188, 192.0, 0.0, 0.0, 0.0, 0.0, 0.0, 0.0, 0.0, 0.0, 0.0, 1.727471133701583E9, 0.0, 2024-09-27 16:05:33.701
0.0, 16361.879272684966, 48657.15487684666, -49379.987940786836, -43277.62642832118, -48732.25673821649, -29618.654205638675, -43547.05435598545, -56403.37543527788, -39543.14166821738, -49461.571808048706, -93312.9228130487, -21722.92282854591, -48534.7567242094, -44563.63404555727, -59946.46220761087, -85734.83207641031, -0.038, 0.99, 0.188, 192.0, 0.0, 0.0, 0.0, 0.0, 0.0, 0.0, 0.0, 0.0, 0.0, 1.727471133701601E9, 0.0, 2024-09-27 16:05:33.701
2.0, 16338.365237517983, 48689.5425545624, -49479.542610590775, -43281.716797556495, -48740.77275285396, -29621.13524927321, -43542.09226871637, -56422.62028725389, -39520.92403422881, -49375.33877794013, -93372.9372469112, -21716.619636609514, -48556.25910237541, -44510.034562353445, -59909.313608326156, -85710.9827650765, -0.038, 0.99, 0.188, 192.0, 0.0, 0.0, 0.0, 0.0, 0.0, 0.0, 0.0, 0.0, 0.0, 1.7274711337016122E9, 0.0, 2024-09-27 16:05:33.701
4.0, 16375.580892036069, 49073.25495162666, -49345.298033392195, -43247.63038726216, -48721.013810755474, -29609.579397389818, -43531.4751901001, -56402.19079282174, -39515.425505092804, -49331.21643438536, -93297.45540588563, -21723.526325646202, -48567.45732634751, -44544.88093195927, -59829.4731771318, -85721.46573322604, -0.038, 0.99, 0.188, 192.0, 0.0, 0.0, 0.0, 0.0, 0.0, 0.0, 0.0, 0.0, 0.0, 1.7274711337016237E9, 0.0, 2024-09-27 16:05:33.701
6.0, 16357.923013916376, 49049.249178081656, -49474.55817157724, -43235.73925921193, -48732.63671787223, -29638.68136867063, -43544.170980950716, -56411.73498770416, -39497.99114441766, -49269.97265457781, -93351.77014491202, -21722.565200634624, -48561.42235534458, -44534.57677776537, -59762.708516443796, -85730.5405414749, -0.042, 0.992, 0.19, 192.0, 127.0, 88.0, 15.5, 0.0, 2.5, 120.0, 0.0, 0.0, 0.0, 1.727471133701635E9, 0.0, 2024-09-27 16:05:33.701
8.0, 16390.400098609938, 49340.51476007876, -49352.00355672879, -43163.11844147664, -48703.55709833588, -29643.241124539512, -43530.268195899516, -56393.630074695364, -39492.4702635372, -49208.840633492546, -93289.9228680042, -21702.739203302768, -48550.31353835029, -44544.500952303526, -59748.29164127012, -85712.14505578818, -0.042, 0.992, 0.19, 192.0, 0.0, 0.0, 0.0, 0.0, 0.0, 0.0, 0.0, 0.0, 0.0, 1.7274711337016463E9, 0.0, 2024-09-27 16:05:33.701
10.0, 16365.14262737544, 49287.630532697505, -49485.689340315985, -43136.49751383037, -48728.65810735919, -29645.141022818214, -43552.843457799376, -56420.899202930836, -39495.845376949954, -49156.17992355584, -93335.11809529283, -21710.137630717472, -48568.463154848, -44521.25513807001, -59651.17331161181, -85720.83988438129, -0.042, 0.992, 0.19, 192.0, 0.0, 0.0, 0.0, 0.0, 0.0, 0.0, 0.0, 0.0, 0.0, 1.7274711337016616E9, 0.0, 2024-09-27 16:05:33.701
12.0, 16400.391328381458, 49456.922645202, -49388.48160367985, -43092.688094697965, -48673.06931889884, -29663.581211993842, -43543.388669894775, -56400.84968815443, -39484.08835936646, -49123.00993478417, -93308.81009206893, -21692.323290386594, -48545.15028538112, -44528.31828931788, -59676.00609970166, -85705.14895977367, -0.042, 0.992, 0.19, 192.0, 0.0, 0.0, 0.0, 0.0, 0.0, 0.0, 0.0, 0.0, 0.0, 1.7274711337016728E9, 0.0, 2024-09-27 16:05:33.701
14.0, 16372.026964667675, 49331.50700706327, -49518.00996279836, -43088.217745806905, -48724.61244161278, -29682.64725001422, -43576.9833418111, -56431.20335712473, -39478.723940697186, -49073.076137671014, -93328.70314463416, -21685.66247053891, -48574.498125850936, -44517.74591419052, -59614.80702338303, -85713.1285325442, -0.042, 0.992, 0.19, 192.0, 0.0, 0.0, 0.0, 0.0, 0.0, 0.0, 0.0, 0.0, 0.0, 1.7274711337016835E9, 0.0, 2024-09-27 16:05:33.701
16.0, 16397.86558125801, 49425.58549947566, -49421.986868618354, -43038.48511439385, -48686.7932899944, -29691.722058263073, -43563.885219560296, -56414.55130750553, -39456.349844497425, -49030.496064483654, -93311.02291477, -21657.745141714233, -48534.68966897603, -44556.54854256494, -59683.1363061829, -85705.70775338504, -0.042, 0.988, 0.196, 192.0, 127.0, 88.0, 15.0, 112.0, 3.0, 16.0, 0.0, 0.0, 0.0, 1.7274711337016952E9, 0.0, 2024-09-27 16:05:33.701
18.0, 16377.369031592492, 49333.2951466197, -49527.37534372513, -43033.43362014695, -48744.863122089286, -29704.17197992468, -43588.87446986133, -56419.35693256342, -39463.36829225639, -48990.2629244641, -93309.30183044694, -21654.101807368017, -48583.081195721774, -44519.31053630239, -59599.94311332025, -85694.62128813521, -0.042, 0.988, 0.196, 192.0, 0.0, 0.0, 0.0, 0.0, 0.0, 0.0, 0.0, 0.0, 0.0, 1.7274711337017071E9, 0.0, 2024-09-27 16:05:33.701
20.0, 16399.363148136516, 49403.814900376194, -49435.2191013359, -42997.670829018454, -48669.02365315243, -29690.000973940012, -43536.92901574719, -56388.26565602609, -39452.34888223992, -48948.95690071069, -93323.27167073151, -21641.964810128786, -48572.30765489431, -44516.85184441231, -59693.61927433244, -85690.70973285554, -0.042, 0.988, 0.196, 192.0, 0.0, 0.0, 0.0, 0.0, 0.0, 0.0, 0.0, 0.0, 0.0, 1.7274711337017183E9, 0.0, 2024-09-27 16:05:33.701
22.0, 16396.14449693495, 49343.44283860241, -49521.09450353319, -43021.83306477464, -48738.6046336418, -29686.98348843855, -43573.09413827588, -56417.613496495906, -39452.46064096221, -48922.62654574234, -93298.90826927523, -21650.547879999624, -48578.29792240834, -44521.41160028119, -59589.884828315364, -85690.28504971089, -0.042, 0.988, 0.196, 192.0, 0.0, 0.0, 0.0, 0.0, 0.0, 0.0, 0.0, 0.0, 0.0, 1.7274711337017293E9, 0.0, 2024-09-27 16:05:33.701
24.0, 16411.991883753763, 49379.09387100862, -49451.06648815471, -43002.07412267615, -48677.58437127881, -29698.964023466593, -43529.396477865754, -56386.365757747386, -39455.14285029684, -48893.613981439354, -93341.1307145513, -21653.76653120119, -48609.34449545676, -44533.0121556535, -59686.80199227357, -85697.12468351421, -0.042, 0.988, 0.196, 192.0, 0.0, 0.0, 0.0, 0.0, 0.0, 0.0, 0.0, 0.0, 0.0, 1.7274711337017405E9, 0.0, 2024-09-27 16:05:33.701
26.0, 16411.075462231096, 49360.02783298824, -49497.155785221556, -43014.948727482406, -48720.36561016627, -29650.885421143226, -43547.74726006357, -56395.7087869297, -39435.942701809734, -48868.91530381624, -93287.08419645837, -21647.396284031427, -48561.42235534458, -44520.919861903174, -59569.43298213876, -85680.40557866164, -0.04, 0.98, 0.194, 192.0, 127.0, 96.0, 15.0, 80.0, 3.0, 8.0, 0.0, 0.0, 0.0, 1.7274711337017515E9, 0.0, 2024-09-27 16:05:33.701
28.0, 16425.11235774903, 49334.882120476024, -49460.253055125846, -43004.28694537723, -48685.3404266048, -29674.712380732584, -43534.00093722355, -56398.323941030976, -39423.67159410377, -48825.1729399172, -93330.08895279038, -21626.60916168799, -48567.97141646998, -44498.9033936147, -59668.69707926478, -85668.22387793349, -0.04, 0.98, 0.194, 192.0, 0.0, 0.0, 0.0, 0.0, 0.0, 0.0, 0.0, 0.0, 0.0, 1.727471133701763E9, 0.0, 2024-09-27 16:05:33.701
30.0, 16414.160002965928, 49364.58758885713, -49481.353101891655, -43027.15277995501, -48733.463732417076, -29686.379991338254, -43550.96591126513, -56400.82733640997, -39445.308082736505, -48804.81050071842, -93271.6167892953, -21638.030903104653, -48574.43107061757, -44531.67105098618, -59547.394162105826, -85674.79529080335, -0.04, 0.98, 0.194, 192.0, 0.0, 0.0, 0.0, 0.0, 0.0, 0.0, 0.0, 0.0, 0.0, 1.7274711337017777E9, 0.0, 2024-09-27 16:05:33.701
32.0, 16406.403947639938, 49282.869611128524, -49489.28797117329, -43022.12363745256, -48692.11300517476, -29684.88242445975, -43523.58502430737, -56404.62713296737, -39455.299312508025, -48792.20411684563, -93368.24338057559, -21655.0629323796, -48627.896443354664, -44522.32802180386, -59649.40752379984, -85699.53867191538, -0.04, 0.98, 0.194, 192.0, 0.0, 0.0, 0.0, 0.0, 0.0, 0.0, 0.0, 0.0, 0.0, 1.7274711337017891E9, 0.0, 2024-09-27 16:05:33.701
34.0, 16424.419453670915, 49309.24466958579, -49479.520258846314, -43016.28983214973, -48707.111025704275, -29655.400473523197, -43517.3712393488, -56382.49890595662, -39433.86398957539, -48761.33635775284, -93279.10462368783, -21645.04935086362, -48547.6089772712, -44497.98697209203, -59532.418493320765, -85672.47070938, -0.039, 0.984, 0.192, 192.0, 127.0, 104.0, 15.0, 112.0, 2.5, 120.0, 0.0, 0.0, 0.0, 1.7274711337018E9, 0.0, 2024-09-27 16:05:33.701
36.0, 16418.473889645804, 49150.5025804642, -49512.98082029591, -43014.389933871025, -48688.60378129528, -29663.96119164958, -43504.116654886806, -56386.90219961431, -39422.442248158724, -48741.443305187626, -93370.52325851003, -21649.34088579904, -48554.5603697968, -44525.79254219443, -59659.577567527005, -85682.976029274, -0.039, 0.984, 0.192, 192.0, 0.0, 0.0, 0.0, 0.0, 0.0, 0.0, 0.0, 0.0, 0.0, 1.7274711337018116E9, 0.0, 2024-09-27 16:05:33.701
38.0, 16412.953008765344, 49197.15067114242, -49480.63784606908, -43026.057544476695, -48713.50362461849, -29639.776604148938, -43526.49075108657, -56390.72434791617, -39432.70169886371, -48734.62602312875, -93285.13959469076, -21655.957002157807, -48559.589512299244, -44550.26770237299, -59577.166685720294, -85683.19954671855, -0.039, 0.984, 0.192, 192.0, 0.0, 0.0, 0.0, 0.0, 0.0, 0.0, 0.0, 0.0, 0.0, 1.7274711337018228E9, 0.0, 2024-09-27 16:05:33.701
40.0, 16423.413625170426, 48999.78476760206, -49533.85734961717, -43018.301489150705, -48691.71067377456, -29659.937877647626, -43510.48690205657, -56387.21512403669, -39426.13028599385, -48706.52988034843, -93380.20156385918, -21649.922031154878, -48546.67020400408, -44506.83826289634, -59676.09550667948, -85700.56685216032, -0.039, 0.984, 0.192, 192.0, 0.0, 0.0, 0.0, 0.0, 0.0, 0.0, 0.0, 0.0, 0.0, 1.7274711337018335E9, 0.0, 2024-09-27 16:05:33.701
42.0, 16436.735264865787, 49091.471623357735, -49470.53485757529, -43023.15181769751, -48709.79323503891, -29664.29646781641, -43533.06216395643, -56388.69033917074, -39417.547216123014, -48675.79623172239, -93271.63914103975, -21635.371045514472, -48526.08424736074, -44523.758533449, -59618.56211645152, -85675.57760185929, -0.039, 0.984, 0.192, 192.0, 0.0, 0.0, 0.0, 0.0, 0.0, 0.0, 0.0, 0.0, 0.0, 1.7274711337018497E9, 0.0, 2024-09-27 16:05:33.701
44.0, 16438.50105267776, 48907.58382172392, -49545.592015456205, -43016.982736227845, -48697.946810477595, -29657.613296224274, -43498.372256561786, -56376.218065764675, -39439.69779487822, -48663.413365294145, -93374.68068297872, -21657.47692078077, -48590.32316092529, -44512.694419943626, -59682.89043699389, -85705.46188419603, -0.0345, 0.986, 0.191, 192.0, 127.5, 8.0, 15.0, 112.0, 2.5, 120.0, 0.0, 0.0, 0.0, 1.7274711337018616E9, 0.0, 2024-09-27 16:05:33.701
46.0, 16431.639067129978, 49028.50675922713, -49450.44063930996, -43001.91766046496, -48707.043970470906, -29632.355824989776, -43513.03500092447, -56372.86530409638, -39416.161407966785, -48630.75746664494, -93265.89474271474, -21624.128118053453, -48519.91516589108, -44523.53501600445, -59636.935250393784, -85660.15489818512, -0.0345, 0.986, 0.191, 192.0, 0.0, 0.0, 0.0, 0.0, 0.0, 0.0, 0.0, 0.0, 0.0, 1.7274711337018728E9, 0.0, 2024-09-27 16:05:33.701
48.0, 16407.655645329432, 48820.27790788149, -49560.500629007896, -43027.13042821055, -48704.093540202804, -29660.58607823683, -43502.57438451939, -56386.03048158056, -39427.22552147216, -48630.15396954465, -93369.69624396518, -21650.32436255507, -48534.622613742664, -44529.54763526293, -59683.09160269399, -85703.83020685079, -0.0345, 0.986, 0.191, 192.0, 0.0, 0.0, 0.0, 0.0, 0.0, 0.0, 0.0, 0.0, 0.0, 1.7274711337018836E9, 0.0, 2024-09-27 16:05:33.701
50.0, 16441.76440736823, 48945.58178729794, -49442.43871479496, -42986.33849457961, -48682.61351378125, -29629.62891216623, -43481.519041242485, -56348.79247531801, -39398.30236414699, -48584.28818992236, -93275.75186201953, -21622.89877210841, -48479.52556366033, -44510.302783286905, -59667.02069843063, -85661.60776157472, -0.0345, 0.986, 0.191, 192.0, 0.0, 0.0, 0.0, 0.0, 0.0, 0.0, 0.0, 0.0, 0.0, 1.7274711337018948E9, 0.0, 2024-09-27 16:05:33.701
52.0, 16412.371863409506, 48751.926273337165, -49561.84173367521, -43007.90792797899, -48717.1469589647, -29628.243104010002, -43516.343059103856, -56392.69130142824, -39419.938852779735, -48581.98596024346, -93359.07916534891, -21651.62076373348, -48551.073497661775, -44507.91114663019, -59686.42201261783, -85697.19173874757, -0.0345, 0.986, 0.191, 192.0, 0.0, 0.0, 0.0, 0.0, 0.0, 0.0, 0.0, 0.0, 0.0, 1.7274711337019095E9, 0.0, 2024-09-27 16:05:33.701
54.0, 16443.999581813765, 48877.02898705351, -49430.189958833456, -42980.70585497688, -48677.76318523445, -29613.75917360296, -43474.63470395025, -56344.143312471315, -39389.384018109326, -48549.77709648336, -93285.60898132432, -21635.728673425758, -48485.47112768544, -44518.95290839111, -59695.72033831124, -85666.52514535488, -0.02925, 0.99, 0.1925, 192.0, 127.5, 32.0, 15.5, 8.0, 3.0, 8.0, 0.0, 0.0, 0.0, 1.7274711337019212E9, 0.0, 2024-09-27 16:05:33.701
56.0, 16411.611904098023, 48686.52506906093, -49559.11482085167, -42997.35790459608, -48719.046857243404, -29632.10995580077, -43505.32364908739, -56371.41244070679, -39403.46561711617, -48547.74308773793, -93339.6331476728, -21655.04058063514, -48512.0026483539, -44540.72350749058, -59679.9847102147, -85692.18494798959, -0.02925, 0.99, 0.1925, 192.0, 0.0, 0.0, 0.0, 0.0, 0.0, 0.0, 0.0, 0.0, 0.0, 1.727471133701933E9, 0.0, 2024-09-27 16:05:33.701
58.0, 16432.644895630467, 48775.57441897088, -49466.802116251245, -42975.095567118595, -48692.47063308604, -29609.06530726735, -43512.16328289072, -56372.35121397391, -39434.534541909044, -48525.03371537134, -93318.62250788481, -21658.28158358116, -48572.15119268313, -44503.463149483585, -59730.611411405975, -85675.6223053482, -0.02925, 0.99, 0.1925, 192.0, 0.0, 0.0, 0.0, 0.0, 0.0, 0.0, 0.0, 0.0, 0.0, 1.727471133701944E9, 0.0, 2024-09-27 16:05:33.701
60.0, 16417.669226845414, 48613.211347247525, -49569.88836167912, -42962.0421483567, -48724.74655207951, -29638.569609948354, -43504.384875820266, -56370.54072267303, -39381.78442499452, -48495.17178477905, -93331.16183652423, -21647.642153220433, -48485.24761024089, -44511.86740539878, -59693.8874952659, -85682.52899438489, -0.02925, 0.99, 0.1925, 192.0, 0.0, 0.0, 0.0, 0.0, 0.0, 0.0, 0.0, 0.0, 0.0, 1.7274711337019553E9, 0.0, 2024-09-27 16:05:33.701
62.0, 16435.304753220647, 48703.51239484697, -49460.70009001495, -42904.30759242864, -48674.790403221894, -29610.585225890307, -43485.11767209979, -56350.51355964108, -39391.1498059213, -48460.034842495304, -93301.92575477669, -21630.76658615668, -48474.31760720225, -44520.76339969199, -59749.49863547071, -85666.14516569916, -0.02925, 0.99, 0.1925, 192.0, 0.0, 0.0, 0.0, 0.0, 0.0, 0.0, 0.0, 0.0, 0.0, 1.7274711337019663E9, 0.0, 2024-09-27 16:05:33.701
64.0, 16420.64200885797, 48552.97339594048, -49577.91263793858, -42919.797351336165, -48720.2985549329, -29618.028356793926, -43500.98741066306, -56361.10828651289, -39406.03606772853, -48442.287557397794, -93322.06467653092, -21641.875403150967, -48529.258195073395, -44511.152149576206, -59686.95845448476, -85666.1228139547, -0.029625, 0.995, 0.19825, 192.0, 127.5, 8.0, 15.5, 32.0, 3.0, 48.0, 0.0, 0.0, 0.0, 1.7274711337019773E9, 0.0, 2024-09-27 16:05:33.701
66.0, 16444.24545100277, 48597.87805055118, -49487.768052550324, -42898.764359803725, -48673.85162995478, -29624.599769663786, -43479.23916330805, -56346.378486916845, -39401.85629151539, -48419.086446653186, -93323.07050503141, -21631.504193723704, -48529.57111949577, -44500.445663982115, -59792.72690924727, -85664.17821218708, -0.029625, 0.995, 0.19825, 192.0, 0.0, 0.0, 0.0, 0.0, 0.0, 0.0, 0.0, 0.0, 0.0, 1.7274711337019887E9, 0.0, 2024-09-27 16:05:33.701
68.0, 16436.534099165692, 48522.37385778116, -49560.65709121908, -42887.76730153171, -48709.770883294455, -29633.406356979176, -43489.02922737947, -56348.457199151184, -39365.02061665304, -48399.43926327697, -93285.0725394574, -21619.65776916239, -48469.53433388881, -44514.52726298896, -59711.90300129688, -85656.8691917502, -0.029625, 0.995, 0.19825, 192.0, 0.0, 0.0, 0.0, 0.0, 0.0, 0.0, 0.0, 0.0, 0.0, 1.7274711337019997E9, 0.0, 2024-09-27 16:05:33.701
70.0, 16443.64195390248, 48562.22701814497, -49487.65629382805, -42845.276635322174, -48679.573676535336, -29614.072098025335, -43499.75806471802, -56368.70787962769, -39384.57839305144, -48379.61326594511, -93312.43107467069, -21617.780222628146, -48477.670368870546, -44510.794521664924, -59813.379921123975, -85668.13447095567, -0.029625, 0.995, 0.19825, 192.0, 0.0, 0.0, 0.0, 0.0, 0.0, 0.0, 0.0, 0.0, 0.0, 1.7274711337020109E9, 0.0, 2024-09-27 16:05:33.702
72.0, 16432.622543886013, 48518.59641296821, -49560.2994633078, -42848.16001035691, -48725.908842791185, -29623.05749929637, -43538.18071343669, -56387.99743509263, -39385.42775934074, -48365.33050123817, -93285.43016736867, -21624.776318642656, -48510.12510181965, -44491.504966199995, -59717.20036473279, -85664.93817149856, -0.029625, 0.995, 0.19825, 192.0, 0.0, 0.0, 0.0, 0.0, 0.0, 0.0, 0.0, 0.0, 0.0, 1.727471133702022E9, 0.0, 2024-09-27 16:05:33.702
74.0, 16444.290154491682, 48530.53224450735, -49505.87296555912, -42820.80147514361, -48676.10915614476, -29640.29069427141, -43493.767797204, -56354.51452189857, -39397.78827402452, -48356.99330055634, -93339.0296505725, -21628.33024601105, -48542.42337255757, -44523.5573677489, -59840.51493889272, -85676.80694780433, -0.0318125, 0.9975, 0.207125, 192.0, 127.0, 120.0, 15.5, 32.0, 3.0, 96.0, 0.0, 0.0, 0.0, 1.727471133702056E9, 0.0, 2024-09-27 16:05:33.702
76.0, 16426.028779271695, 48570.67597754908, -49524.24609950139, -42815.146483796416, -48708.005095482484, -29625.85146735328, -43503.44610255314, -56368.28319648304, -39377.582297036926, -48349.68428011946, -93281.1162806888, -21630.408958245393, -48519.37872402414, -44537.54955977792, -59721.62601013494, -85669.40852038962, -0.0318125, 0.9975, 0.207125, 192.0, 0.0, 0.0, 0.0, 0.0, 0.0, 0.0, 0.0, 0.0, 0.0, 1.7274711337020676E9, 0.0, 2024-09-27 16:05:33.702
78.0, 16427.995732783762, 48582.00831198792, -49474.446412854966, -42763.84923027149, -48657.80307743586, -29612.641586380196, -43466.25279977951, -56341.37169615885, -39371.5920295229, -48328.76304730929, -93331.98885106908, -21620.46243196278, -48479.123232260135, -44512.24738505452, -59796.951388949325, -85655.52808708287, -0.0318125, 0.9975, 0.207125, 192.0, 0.0, 0.0, 0.0, 0.0, 0.0, 0.0, 0.0, 0.0, 0.0, 1.7274711337020786E9, 0.0, 2024-09-27 16:05:33.702
80.0, 16402.33593014907, 48682.837031225805, -49485.28700891579, -42775.159212965875, -48704.719389047554, -29582.734952298993, -43504.07195139789, -56350.558263129984, -39379.77276799354, -48325.4549891299, -93261.55850429041, -21630.43130998985, -48486.186383508015, -44509.274603041966, -59671.15577115486, -85640.77593574238, -0.0318125, 0.9975, 0.207125, 192.0, 0.0, 0.0, 0.0, 0.0, 0.0, 0.0, 0.0, 0.0, 0.0, 1.7274711337020895E9, 0.0, 2024-09-27 16:05:33.702
82.0, 16387.427316597383, 48680.37833933572, -49501.000285267866, -42770.73356756372, -48677.114984645246, -29606.96424328855, -43504.98837292056, -56357.844931822416, -39425.23621621564, -48323.68920131793, -93372.11023236635, -21663.176615616874, -48558.09194542074, -44528.1618271067, -59767.98352813525, -85670.45905237902, -0.0318125, 0.9975, 0.207125, 192.0, 0.0, 0.0, 0.0, 0.0, 0.0, 0.0, 0.0, 0.0, 0.0, 1.727471133702101E9, 0.0, 2024-09-27 16:05:33.702
84.0, 16365.209682608805, 48894.172775050734, -49445.45620029643, -42748.18065740832, -48693.476461586535, -29578.75634178595, -43514.39845733625, -56340.47762638064, -39408.91944276327, -48281.33264557513, -93282.1221091893, -21664.562423773103, -48511.73442742043, -44504.75955066199, -59627.480462489184, -85647.88379047916, -0.032, 0.996, 0.216, 192.0, 127.5, 0.0, 15.5, 16.0, 3.0, 96.0, 0.0, 0.0, 0.0, 1.727471133702112E9, 0.0, 2024-09-27 16:05:33.702
86.0, 16339.683990440846, 48933.53419703653, -49461.03536618178, -42730.41102056635, -48678.098461401285, -29580.790350531384, -43512.923242202196, -56346.55730087248, -39413.300384676506, -48287.926410189444, -93359.68266244921, -21651.19608058883, -48541.75282022391, -44523.46796077108, -59645.56302375353, -85650.61070330271, -0.032, 0.996, 0.216, 192.0, 0.0, 0.0, 0.0, 0.0, 0.0, 0.0, 0.0, 0.0, 0.0, 1.7274711337021234E9, 0.0, 2024-09-27 16:05:33.702
88.0, 16311.587847660525, 49178.62107498897, -49410.11809231259, -42726.07478214202, -48715.02354324145, -29567.93809746958, -43539.65592857074, -56357.286138211035, -39437.14969601032, -48290.76508173527, -93280.2222109106, -21644.57996423006, -48546.71490749299, -44527.73714396205, -59487.91617011025, -85654.45520334902, -0.032, 0.996, 0.216, 192.0, 0.0, 0.0, 0.0, 0.0, 0.0, 0.0, 0.0, 0.0, 0.0, 1.7274711337021344E9, 0.0, 2024-09-27 16:05:33.702
90.0, 16280.004832745175, 49174.64246447593, -49468.67966278549, -42727.70645948726, -48702.350104135294, -29577.32583014081, -43529.128256932294, -56373.20058026321, -39446.984463570654, -48271.18495359242, -93367.43871777519, -21654.101807368017, -48581.538925354354, -44524.47378927157, -59506.557524985976, -85662.9712179865, -0.032, 0.996, 0.216, 192.0, 0.0, 0.0, 0.0, 0.0, 0.0, 0.0, 0.0, 0.0, 0.0, 1.7274711337021456E9, 0.0, 2024-09-27 16:05:33.702
92.0, 16343.886118398443, 49422.3668482741, -49374.64587386201, -42739.441125326295, -48711.49196761751, -29581.416199376134, -43520.36637310581, -56346.512597383575, -39458.42855673177, -48270.96143614787, -93289.78875753746, -21653.498310267725, -48586.97039925699, -44562.33764437886, -59372.22354080958, -85650.45424109153, -0.032, 0.996, 0.216, 192.0, 0.0, 0.0, 0.0, 0.0, 0.0, 0.0, 0.0, 0.0, 0.0, 1.7274711337021565E9, 0.0, 2024-09-27 16:05:33.702
94.0, 16349.786978934644, 49355.53513235273, -49462.64469178256, -42753.343910377494, -48702.841842513306, -29551.80013797285, -43523.36150686282, -56365.109248770386, -39410.014678241576, -48261.35018603208, -93361.85078166137, -21640.601353717015, -48545.03852665884, -44522.395077037225, -59358.85719762531, -85668.49209886696, -0.048, 0.998, 0.216, 192.0, 127.0, 64.0, 15.5, 24.0, 3.0, 96.0, 0.0, 0.0, 0.0, 1.7274711337021675E9, 0.0, 2024-09-27 16:05:33.702
96.0, 16386.376784607983, 49538.66297467506, -49371.404870916, -42766.50908786167, -48708.31801990486, -29558.90799270964, -43499.53454727346, -56342.8469112929, -39419.22359695716, -48221.4299704349, -93270.07451892788, -21630.90069662341, -48521.300974047306, -44505.6536204402, -59255.860359175254, -85632.59519727173, -0.048, 0.998, 0.216, 192.0, 0.0, 0.0, 0.0, 0.0, 0.0, 0.0, 0.0, 0.0, 0.0, 1.727471133702184E9, 0.0, 2024-09-27 16:05:33.702
98.0, 16374.083325157562, 49343.82281825815, -49497.11108173264, -42796.66159113188, -48716.4987583755, -29601.2869001969, -43484.62593372178, -56353.10636199789, -39399.576413580944, -48193.266772421215, -93359.79442117148, -21639.28260079415, -48538.04243064433, -44496.44470172461, -59276.17809488512, -85641.9605781985, -0.048, 0.998, 0.216, 192.0, 0.0, 0.0, 0.0, 0.0, 0.0, 0.0, 0.0, 0.0, 0.0, 1.7274711337021952E9, 0.0, 2024-09-27 16:05:33.702
100.0, 16408.01327324072, 49409.67105742348, -49407.6146969336, -42790.22428872875, -48713.12364496275, -29609.512342156453, -43484.111843599305, -56334.979097244635, -39402.258622915586, -48190.91983925341, -93300.18231870918, -21638.053254849106, -48564.0151577014, -44515.51073974499, -59253.0887428628, -85626.3143570798, -0.048, 0.998, 0.216, 192.0, 0.0, 0.0, 0.0, 0.0, 0.0, 0.0, 0.0, 0.0, 0.0, 1.7274711337022064E9, 0.0, 2024-09-27 16:05:33.702
102.0, 16395.116316690008, 49160.4044032579, -49536.33839325171, -42817.381658241946, -48748.03706980194, -29636.356787247278, -43519.80757949443, -56371.83712385144, -39399.06232345847, -48176.838240246565, -93374.5912760009, -21651.95603990031, -48573.49229735044, -44489.4486057101, -59264.75635346847, -85656.48921209446, -0.048, 0.998, 0.216, 192.0, 0.0, 0.0, 0.0, 0.0, 0.0, 0.0, 0.0, 0.0, 0.0, 1.7274711337022178E9, 0.0, 2024-09-27 16:05:33.702
104.0, 16426.96755253882, 49169.00982487319, -49448.920720687005, -42822.23198678875, -48733.30727020589, -29636.82617388084, -43520.09815217235, -56365.62333889286, -39385.383055851824, -48161.66140576141, -93318.46604567362, -21638.701455438313, -48524.69843920451, -44508.4028850082, -59289.23151364703, -85638.74192699694, -0.058, 1.008, 0.20400000000000001, 192.0, 127.0, 24.0, 15.5, 64.0, 3.0, 48.0, 0.0, 0.0, 0.0, 1.7274711337022288E9, 0.0, 2024-09-27 16:05:33.702
106.0, 16390.064822443106, 48907.44971125719, -49585.82515547576, -42852.138620869955, -48775.820288159885, -29664.318819560867, -43539.38770763728, -56382.67771991226, -39393.11675943336, -48170.98208319928, -93378.77105221404, -21660.18148185986, -48566.026814702374, -44541.05878365741, -59283.8447432333, -85661.58540983027, -0.058, 1.008, 0.20400000000000001, 192.0, 0.0, 0.0, 0.0, 0.0, 0.0, 0.0, 0.0, 0.0, 0.0, 1.727471134182218E9, 0.0, 2024-09-27 16:05:34.182
108.0, 16431.370846196514, 48881.09700454438, -49487.32101766122, -42820.42149548787, -48739.69986912011, -29653.031188610938, -43515.58309979238, -56368.618472649876, -39371.70378824518, -48150.39612655594, -93348.23856928809, -21633.381740257948, -48520.78688392483, -44495.908259857686, -59382.08066011437, -85650.83422074726, -0.058, 1.008, 0.20400000000000001, 192.0, 0.0, 0.0, 0.0, 0.0, 0.0, 0.0, 0.0, 0.0, 0.0, 1.727471134182263E9, 0.0, 2024-09-27 16:05:34.182
110.0, 16440.82563410111, 48642.55918771734, -49605.33822838524, -42854.642016248945, -48801.03305590547, -29670.331438819343, -43533.71036454563, -56378.944978588224, -39357.51043051606, -48137.49917000523, -93358.94505488218, -21628.419652988872, -48515.22129955546, -44477.46807068206, -59368.200226807625, -85660.78074702987, -0.058, 1.008, 0.20400000000000001, 192.0, 0.0, 0.0, 0.0, 0.0, 0.0, 0.0, 0.0, 0.0, 0.0, 1.7274711341822898E9, 0.0, 2024-09-27 16:05:34.182
112.0, 16441.250317245762, 48604.42711167659, -49518.36759070964, -42852.563304014606, -48765.29261652144, -29685.150645393212, -43505.65892525422, -56351.608795119384, -39374.140128390805, -48147.53510326566, -93360.2861595495, -21615.81326911608, -48529.5040642624, -44503.82077739487, -59493.34764401289, -85676.85165129324, -0.058, 1.008, 0.20400000000000001, 192.0, 0.0, 0.0, 0.0, 0.0, 0.0, 0.0, 0.0, 0.0, 0.0, 1.7274711341823063E9, 0.0, 2024-09-27 16:05:34.182
114.0, 16419.412662912924, 48418.14767338606, -49631.04273450885, -42901.73714181628, -48839.61216683533, -29700.282776389457, -43534.67148955721, -56382.56596118998, -39386.88062273033, -48148.250359088226, -93371.64084573279, -21627.436176232837, -48574.967512484494, -44492.33198074484, -59448.666506846734, -85680.58439261728, -0.06, 1.004, 0.198, 192.0, 127.0, 16.0, 15.5, 48.0, 3.0, 24.0, 0.0, 0.0, 0.0, 1.72747113418232E9, 0.0, 2024-09-27 16:05:34.182
116.0, 16452.582651684603, 48386.96698987091, -49539.91467236455, -42894.696342312855, -48804.1175966403, -29691.69970651862, -43494.68421872667, -56348.85953055138, -39375.72710224713, -48146.23870208725, -93393.21027913217, -21635.75102517021, -48534.44379978703, -44516.58362347885, -59579.17834272127, -85697.16938700312, -0.06, 1.004, 0.198, 192.0, 0.0, 0.0, 0.0, 0.0, 0.0, 0.0, 0.0, 0.0, 0.0, 1.727471134182335E9, 0.0, 2024-09-27 16:05:34.182
118.0, 16434.455386931346, 48227.107313526554, -49636.18363573356, -42926.860502584044, -48845.46832388262, -29690.045677428923, -43513.50438755803, -56368.52906567205, -39371.86025045637, -48127.64205070044, -93359.4367932602, -21622.42938547485, -48515.26600304437, -44493.76249238998, -59517.934562913724, -85667.64273257766, -0.06, 1.004, 0.198, 192.0, 0.0, 0.0, 0.0, 0.0, 0.0, 0.0, 0.0, 0.0, 0.0, 1.7274711341823704E9, 0.0, 2024-09-27 16:05:34.182
120.0, 16457.656497675955, 48179.699263536844, -49575.029262903845, -42913.56121463313, -48814.53350955647, -29689.59864253982, -43510.106922400824, -56363.857551080895, -39400.76105603708, -48153.03363240166, -93411.80693051899, -21634.23110654725, -48589.451442891535, -44531.62634749727, -59670.03818393209, -85696.09650326926, -0.06, 1.004, 0.198, 192.0, 0.0, 0.0, 0.0, 0.0, 0.0, 0.0, 0.0, 0.0, 0.0, 1.7274711341823845E9, 0.0, 2024-09-27 16:05:34.182
122.0, 16481.30464330967, 48131.73241993575, -49601.35961787219, -42900.48544412678, -48838.4275243792, -29656.853336912794, -43504.98837292056, -56355.475646910156, -39354.11296535885, -48107.88310860194, -93337.50973194954, -21603.98919629922, -48492.31076148877, -44489.962695832575, -59569.36592690539, -85661.63011331917, -0.057999999999999996, 1.002, 0.196, 192.0, 127.0, 32.0, 15.5, 32.0, 3.0, 8.0, 0.0, 0.0, 0.0, 1.727471134182398E9, 0.0, 2024-09-27 16:05:34.182
124.0, 16475.02380311773, 48031.10486639797, -49593.983542201946, -42903.41352265043, -48825.91054748423, -29682.267270358476, -43509.637535767266, -56378.22972276565, -39378.342256348405, -48112.442864470824, -93402.64271529231, -21602.42457418735, -48533.63913698663, -44488.643942909715, -59718.317951955556, -85684.9206310416, -0.057999999999999996, 1.002, 0.196, 192.0, 0.0, 0.0, 0.0, 0.0, 0.0, 0.0, 0.0, 0.0, 0.0, 1.727471134182412E9, 0.0, 2024-09-27 16:05:34.182
126.0, 16488.144277112995, 48002.494633495175, -49617.49757736893, -42904.7769790622, -48868.736489860596, -29651.77949092144, -43528.435352854176, -56369.57959766145, -39373.424872568234, -48126.74798092222, -93344.46112447514, -21608.683062634835, -48537.863616688686, -44493.76249238998, -59664.338489095986, -85673.96827625851, -0.057999999999999996, 1.002, 0.196, 192.0, 0.0, 0.0, 0.0, 0.0, 0.0, 0.0, 0.0, 0.0, 0.0, 1.727471134182431E9, 0.0, 2024-09-27 16:05:34.182
128.0, 16512.08299542463, 47921.178987166764, -49598.163318415085, -42882.78286251818, -48823.54126257197, -29643.375235006242, -43488.49278551254, -56345.30560318299, -39353.040081625, -48120.645954685926, -93398.64175303481, -21609.286559735127, -48517.83645365673, -44460.19017221811, -59791.11758364649, -85671.08490122377, -0.057999999999999996, 1.002, 0.196, 192.0, 0.0, 0.0, 0.0, 0.0, 0.0, 0.0, 0.0, 0.0, 0.0, 1.727471134182445E9, 0.0, 2024-09-27 16:05:34.182
130.0, 16508.819640734153, 47943.977766511176, -49594.76585325788, -42887.90141199844, -48848.19523670617, -29618.542446916395, -43499.13221587327, -56351.94407128621, -39342.758279175556, -48104.61975391147, -93317.10258926185, -21593.97561478324, -48520.228090313445, -44490.253268510496, -59729.94085907232, -85662.01009297492, -0.057999999999999996, 1.002, 0.196, 192.0, 0.0, 0.0, 0.0, 0.0, 0.0, 0.0, 0.0, 0.0, 0.0, 1.7274711341824584E9, 0.0, 2024-09-27 16:05:34.182
132.0, 16497.50965803977, 47828.6427651218, -49612.82606277777, -42878.78190026068, -48828.65981205223, -29634.412185479665, -43484.245954066035, -56365.109248770386, -39358.002168894076, -48099.031817797644, -93388.4940610521, -21594.89203630591, -48510.05804658628, -44453.328186670326, -59840.13495923698, -85669.14029945616, -0.055, 0.998, 0.193, 192.0, 127.0, 48.0, 15.5, 8.0, 2.5, 120.0, 0.0, 0.0, 0.0, 1.7274711341824727E9, 0.0, 2024-09-27 16:05:34.182
134.0, 16500.907123196976, 47849.9439775877, -49585.646341520114, -42873.12690891349, -48847.72585007261, -29602.762115330952, -43509.078742155885, -56369.646652894815, -39376.732930747625, -48126.636222199944, -93323.24931898706, -21602.89396082091, -48546.245520859426, -44513.007344366, -59791.87754295797, -85667.53097385538, -0.055, 0.998, 0.193, 192.0, 0.0, 0.0, 0.0, 0.0, 0.0, 0.0, 0.0, 0.0, 0.0, 1.727471134182487E9, 0.0, 2024-09-27 16:05:34.182
